Jaz Data File
++++++++++++++++++++++++++++++++++++
Date: Fri Jun 04 16:47:23 2021
User: jaz
Dark Spectrum Present: Yes
Reference Spectrum Present: Yes
Processed Spectrum Present: Yes
Spectrometers: JAZA3586
Integration Time (usec): 61000 (JAZA3586)
Spectra Averaged: 10 (JAZA3586)
Boxcar Smoothing: 1 (JAZA3586)
Correct for Electrical Dark: No (JAZA3586)
Strobe/Lamp Enabled: Yes (JAZA3586)
Correct for Detector Non-linearity: No (JAZA3586)
Correct for Stray Light: No (JAZA3586)
Number of Pixels in Processed Spectrum: 2048
>>>>>Begin Processed Spectral Data<<<<<
W	D	R	S	P
191.335022	0.000000	0.000000	0.000000	0.000000
191.713211	226.474716	230.784256	233.533463	163.793503
192.091385	460.008179	466.546783	468.552979	130.682312
192.469528	701.789246	703.349609	707.807800	385.714844
192.847641	722.519592	716.947021	713.751953	157.335632
193.225739	732.847656	724.674377	720.587708	150.000366
193.603790	736.042725	731.287354	723.485596	264.062012
193.981842	737.305969	738.197510	729.652649	-858.437744
194.359863	742.284180	741.838379	741.541199	166.662109
194.737854	745.107666	748.302734	754.618469	297.671356
195.115829	750.680420	744.959167	755.658691	-87.013664
195.493774	756.178772	749.120056	743.993164	172.632080
195.871704	764.277832	749.342957	739.683594	164.676559
196.249603	762.420227	752.612305	747.559631	151.516251
196.627457	756.698914	759.596680	751.571960	-176.927780
197.005310	758.705078	755.732910	752.835144	197.496719
197.383133	754.395508	754.172607	748.748535	2533.406250
197.760910	759.373840	746.519470	755.732971	28.323978
198.138687	750.977600	752.166443	754.544128	300.000000
198.516449	752.463623	750.383118	755.584412	-150.001465
198.894180	754.618469	743.101501	750.308838	37.419846
199.271866	752.686584	737.083008	750.977600	10.952517
199.649536	750.308899	740.129395	748.079834	21.897579
200.027191	745.479187	748.079834	749.417236	151.425751
200.404816	748.005554	754.395569	746.593750	-22.093912
200.782410	751.423401	766.506836	752.092102	4.433348
201.159988	743.398743	778.469543	755.658691	34.957710
201.537537	738.420471	784.562439	757.516296	41.384937
201.915070	740.203674	782.630615	753.503906	31.348553
202.292557	747.336731	782.036133	755.287170	22.912325
202.670029	753.652527	780.772949	762.345886	32.054661
203.047485	748.377014	781.516052	765.466553	51.569206
203.424911	744.810486	776.240540	762.717468	56.974075
203.802292	741.987000	777.652344	761.305664	54.166489
204.179688	745.553467	774.977356	760.414063	50.505207
204.557037	746.668030	769.999084	759.299500	54.140156
204.934357	743.101563	769.924805	759.002380	59.279999
205.311661	743.695984	763.460449	756.104492	62.781906
205.688934	743.695984	770.519226	750.754700	26.315670
206.066177	740.500977	768.958923	748.971436	29.764828
206.443390	737.157410	773.342712	754.841309	48.870392
206.820587	734.036621	770.445007	759.299500	69.387527
207.197769	740.426575	765.095154	758.927917	74.999626
207.574921	737.974609	766.729797	749.194336	39.018093
207.952042	739.089172	774.828796	748.154114	25.363840
208.329147	740.649475	789.169189	742.655762	4.134993
208.706223	755.435730	809.528137	769.924805	26.785782
209.083267	757.367615	802.617981	776.760681	42.857258
209.460297	753.503906	793.775940	779.361267	64.206741
209.837280	737.677429	772.451111	759.448059	62.606628
210.214264	733.516418	769.776184	754.469788	57.786831
210.591217	726.383484	768.958923	749.863098	55.148262
210.968124	719.919128	766.506836	750.680420	66.028770
211.345016	723.411316	765.540955	754.692688	74.250275
211.721893	735.596863	766.209656	754.172607	60.679680
212.098724	743.175781	767.472839	747.856873	19.266083
212.475555	741.318176	773.342773	741.763977	1.392057
212.852356	736.785828	772.005310	743.993103	20.463888
213.229126	739.757874	772.748352	749.045715	28.153099
213.605865	736.191406	770.519226	750.903320	42.857117
213.982590	725.491760	768.215820	751.943604	61.913223
214.359283	721.851013	766.952637	747.931152	57.825279
214.735931	719.844727	762.271667	749.194336	69.176819
215.112579	731.138733	771.708008	748.451355	42.674221
215.489197	728.463867	770.742126	748.822815	48.154652
215.865799	736.785828	777.949524	742.507080	13.898782
216.242355	737.454529	772.896973	743.250183	16.352299
216.618896	741.392578	768.736023	747.113831	20.923672
216.995407	739.386414	760.636963	753.503906	66.433540
217.371902	730.470032	752.240723	758.184875	127.303467
217.748367	727.497986	768.215820	753.132324	62.956047
218.124802	724.154358	776.612061	746.147949	41.926334
218.501236	729.281250	787.460266	741.243958	20.561893
218.877609	730.321472	778.989746	746.222229	32.671707
219.253983	730.990173	778.841125	758.184998	56.832359
219.630295	733.442139	770.147705	760.934143	74.898735
220.006592	729.206848	765.318054	759.819641	84.773666
220.382889	725.714661	756.104492	751.943542	86.308083
220.759140	720.587708	768.290100	752.983826	67.912987
221.135391	722.891174	772.896912	747.708252	49.628460
221.511581	724.377258	777.726563	753.429626	54.456882
221.887772	718.135803	772.302429	752.315125	63.100334
222.263931	719.621887	773.788574	756.178772	67.489609
222.640060	721.256531	773.491394	752.092102	59.032551
223.016159	730.172852	768.513000	753.801086	61.627914
223.392212	730.841553	762.345886	756.996094	83.018867
223.768265	727.795166	758.779358	756.624573	93.045532
224.144302	731.064453	758.184998	754.395508	86.027237
224.520294	731.658875	760.116882	753.281006	75.979073
224.896286	739.534973	764.797913	756.327393	66.470566
225.272217	735.448303	773.565613	760.042480	64.522331
225.648148	738.717712	775.497559	760.116882	58.181782
226.024048	736.265625	771.039368	754.618469	52.777882
226.399902	734.705261	769.479004	753.206726	53.205273
226.775772	727.795166	768.438721	754.618469	65.996452
227.151581	734.482422	773.714172	760.636902	66.666618
227.527374	729.801270	774.977356	754.321228	54.276413
227.903137	734.110840	771.708008	747.188232	34.782921
228.278870	730.247253	771.559387	747.931213	42.805729
228.654572	737.008728	766.358337	748.525635	39.240410
229.030273	738.717712	770.816406	751.720703	40.509407
229.405930	734.333740	771.410828	748.748535	38.877907
229.781555	735.448303	779.435547	754.469788	43.243183
230.157181	732.996338	776.612061	757.441895	56.047581
230.532761	737.083008	778.395325	762.494568	61.510857
230.908325	740.798157	769.553284	758.556458	61.756989
231.283859	751.497742	776.166260	756.104492	18.674614
231.659332	743.770264	769.479004	748.599915	18.786028
232.034821	735.448303	769.330383	748.674255	39.035244
232.410263	722.148132	770.816406	745.627869	48.244442
232.785690	730.544373	776.760681	747.039551	35.691250
233.161087	739.906494	780.847229	753.355286	32.849415
233.536469	742.878601	774.680176	755.584290	39.953018
233.911804	737.677429	779.212646	760.785583	55.635086
234.287140	731.436035	776.091980	749.268616	39.933273
234.662430	732.773438	775.348877	748.674133	37.347111
235.037704	738.940613	759.670959	742.358459	16.487165
235.412933	733.813721	765.020813	751.794922	57.618958
235.788162	734.036621	768.364441	750.606140	48.268486
236.163345	729.949890	774.903076	754.246887	54.049557
236.538513	735.225403	772.228210	757.962097	61.445862
236.913635	728.538147	773.268372	758.556458	67.109680
237.288742	729.875671	777.429382	757.293274	57.656075
237.663834	730.767273	776.760559	744.067444	28.917635
238.038879	740.575195	782.704834	750.531738	23.633108
238.413910	740.352356	788.574768	750.383240	20.801291
238.788910	743.398743	794.890564	757.441895	27.272587
239.163879	729.206848	789.837952	752.983704	39.215607
239.538834	722.668274	777.355164	753.949707	57.200974
239.913757	717.095459	772.079590	756.030212	70.810890
240.288651	730.172852	765.615234	763.014648	92.662498
240.663528	734.556641	771.262268	763.757629	79.554527
241.038361	735.968445	768.513000	764.872253	88.813042
241.413177	731.213074	769.479004	755.138611	62.524384
241.787979	729.058350	769.776184	749.120056	49.270073
242.162735	734.853821	775.423157	752.537903	43.589775
242.537476	729.429749	779.881348	760.116882	60.824898
242.912170	743.844482	781.070129	765.540955	58.283669
243.286865	733.367859	780.772949	759.522461	55.172562
243.661514	738.197510	773.862793	751.720642	37.916794
244.036148	721.107849	772.822571	743.993164	44.252998
244.410751	718.581543	769.776184	741.838379	45.428261
244.785339	723.039795	773.788513	748.302734	49.780449
245.159882	728.538147	778.172363	755.658691	54.640823
245.534378	738.494690	778.543945	759.819641	53.246811
245.908890	735.151123	776.314758	753.429626	44.404491
246.283356	732.179016	774.680176	749.417236	40.559410
246.657791	728.909668	781.144531	746.965271	34.566193
247.032196	722.816895	791.844055	755.510071	47.362770
247.406586	722.742493	792.810059	766.358215	62.248093
247.780960	719.993347	792.661438	769.553223	68.200325
248.155289	732.104675	790.209473	769.999084	65.217354
248.529602	735.894104	787.014404	763.014648	53.052395
248.903870	743.621643	786.865906	755.361511	27.147804
249.278122	741.912598	788.872070	748.079834	13.133104
249.652344	741.615479	785.454102	751.051941	21.525454
250.026550	736.414307	783.076416	758.928040	48.248425
250.400711	739.832214	782.779114	765.318054	59.342678
250.774857	736.785828	791.175354	762.048767	46.448170
251.148987	735.299805	790.655273	764.277771	52.348877
251.523071	726.234863	790.432312	762.568848	56.597240
251.897125	729.727051	789.169189	758.556458	48.499950
252.271164	725.789063	794.890442	753.726807	40.430080
252.645187	724.302917	791.546875	748.376953	35.801041
253.019165	716.724060	792.884338	757.516296	53.561039
253.393112	730.544373	790.580994	759.448181	48.143631
253.767044	730.024231	787.385925	762.420227	56.476707
254.140930	736.191406	793.181458	760.488342	42.633644
254.514801	732.253357	792.141296	760.859863	47.766724
254.888657	737.751709	795.187744	761.305664	41.009022
255.262466	738.643372	783.373535	757.144714	41.362118
255.636276	739.237793	786.791504	755.510071	34.218735
256.010010	742.135559	784.636719	757.962097	37.237896
256.383759	742.209900	788.723450	752.017883	21.086292
256.757446	738.569031	786.568665	748.451355	20.588333
257.131134	738.643372	790.283752	751.423401	24.748131
257.504791	736.934326	786.419983	766.804016	60.360298
257.878418	737.603088	781.664612	766.358215	65.261307
258.252014	734.853943	781.441711	760.785461	55.661644
258.625580	737.083008	797.714050	752.909424	26.102827
258.999115	735.596924	813.540527	760.414063	31.839867
259.372650	737.157288	825.057434	760.785583	26.880838
259.746124	738.346191	829.738464	754.767090	17.967491
260.119598	735.819824	829.441345	748.971497	14.047702
260.493042	732.179016	832.264832	750.903320	18.708250
260.866425	733.813660	831.818909	749.342957	15.845372
261.239838	739.832214	826.023376	753.652527	16.034489
261.613159	740.723816	823.051270	746.222168	6.678638
261.986511	732.922058	813.763428	756.698914	29.411743
262.359802	728.389587	815.769592	754.767029	30.187044
262.733063	730.990173	808.710754	756.624695	32.982925
263.106293	734.185242	810.271179	757.144714	30.175711
263.479523	742.061279	811.311462	755.138489	18.884007
263.852692	741.392578	810.494141	760.191101	27.204193
264.225861	743.472961	809.156738	756.401672	19.683264
264.598969	741.392578	806.778992	761.974365	31.477161
264.972076	738.271790	816.289734	760.934143	29.047617
265.345154	736.785828	822.828308	765.838135	33.765076
265.718201	726.680603	829.069763	759.893860	32.438255
266.091217	724.525696	834.122314	765.986755	37.830601
266.464203	723.634094	840.512390	768.884521	38.715851
266.837158	725.417480	839.026306	773.788574	42.576881
267.210114	733.442200	830.778748	766.358337	33.816833
267.583038	735.225403	836.351379	762.643066	27.112385
267.955902	741.169739	836.277161	761.379944	21.249872
268.328766	732.104797	852.995300	767.992920	29.686470
268.701569	733.442200	844.598938	762.568848	26.203222
269.074371	723.039734	849.354309	762.568848	31.294182
269.447144	722.593933	843.335876	761.900146	32.553902
269.819885	718.358643	850.766113	765.615234	35.690277
270.192596	728.612488	855.001282	761.305664	25.867147
270.565277	732.327637	855.595764	759.002258	21.639513
270.937927	734.928223	859.162292	752.537903	14.174598
271.310577	732.996338	869.862000	757.293396	17.752487
271.683136	733.070618	884.945374	758.556458	16.780827
272.055725	731.064453	891.038269	759.002258	17.463985
272.428284	730.544373	897.354004	757.664856	16.258345
272.800812	733.070618	895.496399	754.841309	13.403470
273.173279	735.076843	892.821533	759.745300	15.638217
273.545776	735.448303	892.152771	755.064270	12.517810
273.918152	737.603088	895.422058	751.051941	8.521696
274.290558	729.355469	897.725403	744.513184	9.002625
274.662964	733.442139	894.307556	756.030090	14.041521
275.035278	728.538147	892.821472	757.219055	17.458199
275.407593	734.928223	893.936035	760.785645	16.261730
275.779907	731.584656	900.697571	750.903320	11.423530
276.152161	734.333801	902.332275	754.469910	11.985888
276.524384	738.049011	909.613953	761.900146	13.902103
276.896606	736.562927	908.573730	762.048767	14.816418
277.268799	737.008728	914.815125	763.609070	14.960284
277.640930	739.163513	923.954407	757.813477	10.092469
278.013031	744.810486	931.830383	760.265442	8.263803
278.385162	733.888000	934.059509	754.544128	10.319215
278.757233	732.104736	928.338196	760.042542	14.237024
279.129272	732.030334	931.607483	759.150879	13.589003
279.501282	747.485352	939.334961	764.649353	8.946591
279.873230	741.541199	946.913818	761.974365	9.949314
280.245178	744.216003	955.607239	760.191162	7.557153
280.617126	736.265625	966.232605	754.544128	7.948317
280.988983	741.764099	972.919739	749.194336	3.214387
281.360870	735.448303	976.634949	748.302673	5.329636
281.732697	737.751770	986.814453	745.999268	3.311414
282.104492	730.321472	1002.418030	748.376953	6.635689
282.476288	727.349304	1026.640625	751.943542	8.217491
282.848053	730.544373	1021.513733	759.968262	10.112367
283.219757	733.739441	1025.749023	763.906311	10.330781
283.591461	735.225403	1016.907043	764.872253	10.524950
283.963135	727.795105	1020.473450	766.283936	13.150557
284.334747	730.395691	1025.451782	763.831848	11.332136
284.706360	732.922058	1037.265991	762.122986	9.594713
285.077942	739.832214	1052.943848	759.299500	6.217362
285.449524	740.203674	1066.244141	762.940247	6.973543
285.821014	734.928223	1066.912720	764.574951	8.930155
286.192535	730.395752	1085.414185	763.460449	9.313516
286.563995	733.888000	1098.119995	756.624512	6.242316
286.935425	738.271912	1108.893677	757.590515	5.212485
287.306824	738.049011	1107.556274	759.745300	5.871681
287.678223	731.510254	1101.463501	765.763855	9.258900
288.049561	734.408020	1097.896973	773.416992	10.731818
288.420898	737.974609	1089.277832	773.045471	9.983074
288.792145	743.324402	1090.986694	773.491394	8.677096
289.163452	741.838379	1100.274780	765.689514	6.654217
289.534668	732.773438	1114.020630	767.621399	9.140516
289.905914	724.748718	1122.565552	760.488281	8.983924
290.277039	726.234802	1140.769653	762.122986	8.657458
290.648193	736.414246	1162.911987	761.974304	5.993011
291.019318	742.432800	1188.769165	768.141418	5.759920
291.390381	740.575195	1194.193237	761.157043	4.537264
291.761475	737.083008	1190.626831	760.042480	5.062239
292.132507	737.974609	1181.116089	758.259277	4.577470
292.503510	747.113953	1177.995239	762.197266	3.500573
292.874481	755.881653	1177.623779	763.460449	1.797021
293.245422	751.720703	1180.595947	761.900085	2.373507
293.616364	746.890930	1186.020020	764.426453	3.993250
293.987213	731.287415	1205.412964	760.859863	6.237261
294.358093	729.281250	1225.994751	762.940369	6.776365
294.728943	721.628113	1255.418823	761.082764	7.391408
295.099731	726.829285	1276.595093	764.054871	6.771172
295.470490	727.795166	1295.319458	760.562683	5.773765
295.841248	725.491760	1309.213867	762.123047	6.275467
296.211975	727.943665	1327.046509	760.562683	5.444644
296.582642	732.699036	1343.095947	763.014648	4.966541
296.953308	739.386414	1367.541626	756.550293	2.732426
297.323883	740.946716	1380.172974	750.977539	1.569213
297.694519	740.946777	1403.355469	752.166443	1.693768
298.065063	740.872375	1406.624634	753.578186	1.908489
298.435608	738.569031	1402.612305	756.996094	2.774979
298.806122	737.454529	1386.488647	754.469788	2.621628
299.176575	739.832214	1368.210327	754.098328	2.270307
299.547028	742.135559	1352.309448	751.869202	1.595224
299.917450	738.494812	1329.498657	748.748535	1.734967
300.287872	734.556702	1321.250977	751.869324	2.950876
300.658234	735.076843	1318.947632	751.274841	2.774244
301.028564	735.745605	1320.433716	757.441895	3.710746
301.398865	733.293457	1325.411987	758.333557	4.228900
301.769135	724.897278	1330.687500	761.379944	6.022326
302.139374	727.720764	1340.049683	758.853699	5.084348
302.509583	723.857117	1338.860718	755.435791	5.134714
302.879791	727.497986	1339.157837	755.955994	4.652587
303.249939	730.544434	1340.569702	761.974426	5.152245
303.620087	737.528809	1345.473633	759.522461	3.617705
303.990173	736.488586	1348.965942	759.002258	3.675838
304.360260	739.163513	1348.743042	757.962097	3.083861
304.730286	740.278015	1347.034058	767.695740	4.518739
305.100281	740.129395	1352.978271	772.302490	5.249760
305.470276	736.711426	1358.476685	776.909241	6.465111
305.840179	735.894226	1374.526001	777.132141	6.457229
306.210144	736.785828	1374.897461	773.416992	5.740557
306.579987	733.813660	1385.002808	766.135315	4.963482
306.949890	726.680664	1386.340210	763.311829	5.553041
307.319702	728.835388	1408.630981	766.506836	5.541584
307.689484	724.451477	1429.287109	768.884521	6.304029
308.059265	727.720764	1452.989624	765.689514	5.235127
308.429016	722.816833	1472.531250	760.859863	5.074336
308.798737	724.005676	1492.667358	765.689514	5.422911
309.168396	725.194580	1515.106812	772.525391	5.991908
309.538055	732.550537	1537.174683	780.327148	5.937755
309.907684	741.020996	1551.812378	773.788574	4.041431
310.277313	738.346130	1572.319946	768.810242	3.652886
310.646851	733.293518	1577.744141	766.581238	3.941938
311.016388	725.120300	1592.827515	777.875183	6.079802
311.385895	727.943848	1586.734741	778.618225	5.900665
311.755371	726.903503	1589.706665	773.639893	5.416808
312.124817	727.423645	1594.239258	759.968262	3.754503
312.494232	728.463867	1603.006836	754.246887	2.948171
312.863617	733.219238	1612.146118	752.240723	2.164171
313.232971	732.847656	1600.480591	749.491516	1.918307
313.602295	735.968445	1596.245239	758.407898	2.608399
313.971619	730.544434	1585.471558	767.249939	4.293407
314.340820	732.996399	1591.415649	769.330383	4.232662
314.710083	731.956116	1610.585815	768.958801	4.211409
315.079285	735.596924	1629.681641	762.494568	3.008400
315.448486	731.956055	1658.065308	764.129211	3.474013
315.817596	727.869446	1650.857910	759.522461	3.429405
316.186707	724.600098	1646.696899	765.541016	4.439981
316.555786	728.761047	1625.223267	770.445007	4.649829
316.924866	732.253235	1618.090454	767.398499	3.967463
317.293884	738.123230	1610.734375	758.779480	2.367177
317.662872	743.324402	1595.651001	761.751648	2.161994
318.031830	742.581360	1596.096680	769.627625	3.168808
318.400757	736.042786	1605.830444	771.485168	4.074831
318.769684	729.578430	1622.028320	764.872253	3.954712
319.138550	723.411316	1638.151978	757.441895	3.720243
319.507416	726.309082	1641.718628	762.866028	3.993507
319.876190	721.479492	1655.984741	765.392273	4.699040
320.244995	734.259521	1660.591431	774.382996	4.331436
320.613770	737.083069	1657.916626	774.605896	4.074876
320.982483	739.757874	1635.402954	769.999207	3.376486
321.351166	726.977844	1621.062500	766.432617	4.412868
321.719818	723.559875	1612.740601	765.763855	4.746389
322.088440	726.234863	1630.944702	766.135315	4.410304
322.457062	732.550537	1642.981812	761.157043	3.142083
322.825623	734.110901	1666.907227	763.534729	3.154368
323.194183	737.454529	1688.975098	767.695801	3.178205
323.562653	743.324402	1725.457642	777.429382	3.472541
323.931183	737.751709	1772.194214	769.181824	3.038363
324.299591	733.516418	1809.419922	766.804016	3.093920
324.668060	726.606384	1850.434937	759.150879	2.895859
325.036407	733.293640	1879.858765	762.866028	2.579216
