Jaz Data File
++++++++++++++++++++++++++++++++++++
Date: Fri Jun 04 16:09:29 2021
User: jaz
Dark Spectrum Present: Yes
Reference Spectrum Present: Yes
Processed Spectrum Present: Yes
Spectrometers: JAZA3586
Integration Time (usec): 33500 (JAZA3586)
Spectra Averaged: 10 (JAZA3586)
Boxcar Smoothing: 1 (JAZA3586)
Correct for Electrical Dark: No (JAZA3586)
Strobe/Lamp Enabled: Yes (JAZA3586)
Correct for Detector Non-linearity: No (JAZA3586)
Correct for Stray Light: No (JAZA3586)
Number of Pixels in Processed Spectrum: 2048
>>>>>Begin Processed Spectral Data<<<<<
W	D	R	S	P
191.335022	0.000000	0.000000	0.000000	0.000000
191.713211	343.427155	341.792572	334.882324	522.753052
192.091385	684.030823	687.671692	673.925659	-277.548126
192.469528	1030.727417	1035.779907	1024.114380	-130.886688
192.847641	1039.866577	1050.417603	1035.631348	-40.140453
193.225739	1060.745605	1062.231689	1053.092407	-514.990967
193.603790	1066.318359	1074.194458	1055.618774	-135.848801
193.981842	1072.485474	1075.606201	1059.854004	-404.760406
194.359863	1070.479370	1071.445313	1063.346191	-738.468323
194.737854	1075.234619	1068.770264	1062.603149	195.401840
195.115829	1072.708374	1068.621704	1066.615479	149.091934
195.493774	1072.931274	1069.661987	1065.946777	213.639755
195.871704	1075.457642	1070.850952	1072.485474	64.518524
196.249603	1074.120117	1066.764160	1076.720825	-35.355129
196.627457	1074.788940	1071.370972	1073.079956	50.000000
197.005310	1076.497803	1067.953003	1070.776489	66.956673
197.383133	1086.826050	1072.559814	1070.033569	117.707863
197.760910	1090.986816	1074.343140	1072.188354	112.946571
198.138687	1086.008545	1084.745483	1067.730103	1447.153809
198.516449	1084.745239	1086.751587	1064.906616	-988.792908
198.894180	1080.955933	1086.900269	1053.241089	-466.239532
199.271866	1083.779419	1085.191284	1052.200806	-2236.659180
199.649536	1076.051880	1079.024048	1050.343262	-864.978638
200.027191	1073.971558	1076.646484	1054.058228	-744.443909
200.404816	1073.897339	1070.776489	1055.321533	595.216309
200.782410	1070.776489	1086.751465	1058.293579	-78.140404
201.159988	1066.541138	1100.126099	1067.507202	2.876479
201.537537	1067.729980	1109.636841	1078.801147	26.418507
201.915070	1074.491577	1104.138306	1083.259399	29.574333
202.292557	1071.668213	1100.126099	1087.791870	56.657959
202.670029	1067.953003	1100.200317	1083.259277	47.465267
203.047485	1059.631226	1104.584229	1087.420288	61.818035
203.424911	1058.665161	1102.801025	1082.813599	54.713867
203.802292	1056.733276	1100.869141	1085.117065	64.310036
204.179688	1056.881836	1098.565674	1079.321411	53.832794
204.557037	1057.550659	1103.766846	1079.098389	46.623772
204.934357	1058.145020	1107.184814	1077.240845	38.939449
205.311661	1058.665161	1103.692505	1077.166626	41.089397
205.688934	1055.247192	1099.085815	1075.086060	45.254311
206.066177	1052.052246	1093.661743	1074.417358	53.750019
206.443390	1047.445435	1095.222046	1068.027222	43.079212
206.820587	1056.361816	1095.073486	1063.643433	18.809874
207.197769	1059.928345	1098.194336	1059.705444	-0.582503
207.574921	1066.169800	1103.692505	1059.705444	-17.227850
207.952042	1063.420532	1104.584351	1069.364868	14.440681
208.329147	1056.436035	1103.395386	1079.395630	48.892487
208.706223	1063.123413	1103.692627	1097.674194	85.165024
209.083267	1054.578613	1103.246826	1100.200317	93.740250
209.460297	1054.949951	1099.160156	1097.748413	96.806747
209.837280	1043.284424	1088.163330	1085.488403	94.039680
210.214264	1052.720947	1086.082886	1082.813599	90.200546
210.591217	1056.138916	1094.181885	1081.996216	67.968666
210.968124	1055.692993	1100.869263	1084.002319	62.664150
211.345016	1052.572388	1105.178711	1080.212891	52.542168
211.721893	1052.720947	1099.160278	1073.154175	43.999832
212.098724	1050.714844	1098.342896	1072.634155	46.021851
212.475555	1046.182373	1094.404785	1069.736206	48.844162
212.852356	1044.399048	1095.816528	1072.931274	55.491295
213.229126	1048.560059	1094.256226	1065.798218	37.723423
213.605865	1058.367920	1096.559570	1069.439087	28.988449
213.982590	1062.974731	1090.838257	1066.169800	11.466849
214.359283	1061.265747	1091.952759	1067.507202	20.339077
214.735931	1055.544434	1087.346069	1065.501099	31.308657
215.112579	1056.807617	1095.370728	1070.850830	36.416183
215.489197	1064.460815	1086.677246	1067.878784	15.384869
215.865799	1063.940552	1086.603027	1064.089233	0.656070
216.242355	1061.339966	1088.906372	1063.420532	7.547471
216.618896	1057.624878	1097.674194	1067.581543	24.861012
216.995407	1060.522705	1098.045776	1075.903442	40.990082
217.371902	1057.476318	1099.234497	1077.835327	48.754543
217.748367	1058.739502	1094.627686	1074.120239	42.857388
218.124802	1056.287476	1087.940430	1069.364868	41.314919
218.501236	1058.590942	1084.448120	1072.782715	54.885235
218.877609	1050.863403	1099.160156	1079.098511	58.461708
219.253983	1054.504272	1108.225098	1079.395630	46.334652
219.630295	1051.011963	1108.225098	1078.429810	47.922295
220.006592	1052.943848	1099.754517	1078.949829	55.555672
220.382889	1046.405273	1098.342773	1072.114014	49.499378
220.759140	1047.371216	1098.565674	1063.940674	32.365726
221.135391	1049.228638	1093.810303	1052.126587	6.500316
221.511581	1057.550659	1094.330444	1058.739502	3.232327
221.887772	1063.866333	1092.175659	1066.095459	7.874176
222.263931	1068.547485	1092.547241	1070.404907	7.739336
222.640060	1064.312134	1093.364624	1070.553589	21.483374
223.016159	1062.603149	1092.472900	1069.513428	23.134703
223.392212	1058.888062	1095.073364	1079.692871	57.495193
223.768265	1054.950073	1091.358398	1076.720825	59.796082
224.144302	1045.513550	1091.729858	1067.284302	47.106213
224.520294	1035.854248	1088.460571	1061.786011	49.294003
224.896286	1039.717896	1093.513184	1060.671387	38.950420
225.272217	1047.222412	1099.234497	1065.129517	34.428738
225.648148	1057.104614	1109.785400	1064.906616	14.809958
226.024048	1051.160645	1106.813354	1072.188354	37.783802
226.399902	1049.377319	1105.475830	1067.284302	31.920603
226.775772	1042.095703	1100.274780	1071.296631	50.191460
227.151581	1050.789063	1107.259155	1063.271973	22.105347
227.527374	1047.222534	1105.178711	1072.857056	44.230869
227.903137	1049.971802	1104.435669	1071.222290	39.017590
228.278870	1051.160522	1108.968140	1078.875488	47.943451
228.654572	1059.408203	1119.593384	1083.333618	39.753002
229.030273	1070.925171	1129.772827	1082.813477	20.201834
229.405930	1067.284302	1135.271362	1086.305664	27.977915
229.781555	1060.374146	1136.757324	1083.184937	29.863632
230.157181	1051.606323	1135.122681	1089.649292	45.551517
230.532761	1051.977783	1128.286743	1086.305786	44.985546
230.908325	1051.011841	1122.937012	1075.754761	34.400921
231.283859	1058.665161	1122.639771	1069.959106	17.653793
231.659332	1053.092407	1118.924683	1062.900391	14.898442
232.034821	1049.303101	1119.221802	1064.758057	22.104181
232.410263	1046.999634	1121.673828	1066.021118	25.472633
232.785690	1044.101807	1123.531494	1068.027344	30.121656
233.161087	1055.618774	1121.599487	1071.222412	23.648787
233.536469	1049.451660	1119.964966	1069.067505	27.818644
233.911804	1058.367920	1119.444702	1065.278198	11.314084
234.287140	1041.724243	1118.478882	1063.420532	28.267073
234.662430	1039.940918	1123.159912	1061.860107	26.339167
235.037704	1037.340332	1122.937012	1074.194458	43.055557
235.412933	1047.742798	1133.413696	1073.822876	30.442167
235.788162	1049.971680	1133.562378	1074.714478	29.599941
236.163345	1056.733276	1143.295898	1071.965332	17.596573
236.538513	1059.482544	1138.243286	1075.829102	20.754702
236.913635	1058.070679	1133.562378	1074.788940	22.145828
237.288742	1044.027466	1128.435425	1069.513306	30.193645
237.663834	1037.934814	1130.813110	1066.541382	30.800056
238.038879	1033.550903	1137.426147	1075.457642	40.343334
238.413910	1044.696411	1140.695435	1079.990112	36.764645
238.788910	1045.365112	1139.135010	1083.408081	40.570557
239.163879	1049.971680	1131.556030	1078.355347	34.790577
239.538834	1046.925293	1127.172241	1079.172729	40.185249
239.913757	1055.024292	1130.887329	1081.104614	34.378166
240.288651	1055.024414	1137.054565	1084.151001	35.507172
240.663528	1049.228638	1148.645874	1078.578247	29.521650
241.038361	1043.358765	1150.280396	1079.098389	33.425999
241.413177	1042.615845	1160.459839	1071.742432	24.716225
241.787979	1051.383545	1173.388550	1076.126343	20.280149
242.162735	1051.755005	1184.236816	1073.897217	16.713398
242.537476	1055.470093	1196.793945	1077.538086	15.615193
242.912170	1044.919067	1209.053833	1073.302856	17.292978
243.286865	1045.810791	1223.988647	1075.086060	16.430363
243.661514	1043.210205	1231.270386	1078.058228	18.530251
244.036148	1051.309204	1225.697754	1076.200562	14.273504
244.410751	1054.652710	1216.781372	1068.175903	8.341025
244.785339	1060.819946	1198.725830	1066.689941	4.256523
245.159882	1062.306030	1198.651489	1070.553711	6.049106
245.534378	1054.429932	1202.218018	1076.349365	14.831665
245.908890	1049.303101	1220.050659	1073.005737	13.881684
246.283356	1044.621948	1233.796753	1075.309082	16.221575
246.657791	1052.646606	1258.911011	1077.760986	12.175818
247.032196	1058.813721	1289.969604	1074.045898	6.589570
247.406586	1060.374146	1320.433716	1073.377197	5.000028
247.780960	1057.624878	1352.532349	1066.987183	3.174658
248.155289	1053.835571	1355.207275	1073.005493	6.360890
248.529602	1051.309204	1341.535522	1066.615601	5.273952
248.903870	1047.222534	1314.192261	1067.953003	7.765101
249.278122	1044.398926	1299.257324	1063.494751	7.492720
249.652344	1045.364868	1277.338135	1064.609253	8.295949
250.026550	1043.656128	1260.248413	1066.021118	10.325848
250.400711	1044.101929	1241.672729	1073.451416	14.855175
250.774857	1040.461060	1238.031860	1082.813599	21.436640
251.148987	1043.135864	1232.384888	1084.299561	21.751074
251.523071	1046.033691	1236.768799	1083.185059	19.477991
251.897125	1055.767334	1247.319824	1082.590576	14.003077
252.271164	1064.312134	1262.254639	1086.602905	11.261235
252.645187	1063.197632	1283.728149	1085.116943	9.939355
253.019165	1062.974731	1294.056152	1083.259399	8.778148
253.393112	1059.333862	1299.926147	1081.847534	9.357603
253.767044	1062.231689	1282.242065	1085.339844	10.503211
254.140930	1053.686890	1268.867554	1086.900146	15.435057
254.514801	1049.674561	1254.006958	1080.733032	15.199974
254.888657	1044.473267	1247.914185	1074.714478	14.864861
255.262466	1056.510376	1246.948242	1070.553589	7.374170
255.636276	1057.922119	1253.115356	1073.897217	8.184248
256.010010	1058.962280	1266.266968	1081.550415	10.896104
256.383759	1047.445435	1275.406250	1084.894043	16.427652
256.757446	1043.804565	1275.703369	1085.042603	17.782772
257.131134	1045.959351	1283.802368	1072.634155	11.215299
257.504791	1043.879028	1294.724976	1071.965332	11.196634
257.878418	1048.411499	1321.399536	1071.370972	8.410432
258.252014	1046.628052	1341.312744	1083.185059	12.405465
258.625580	1053.092407	1378.390015	1087.643188	10.621284
258.999115	1046.182251	1419.256348	1088.609131	11.372239
259.372650	1041.872681	1464.804077	1081.104492	9.276164
259.746124	1041.352661	1517.038696	1076.349121	7.357050
260.119598	1054.504272	1579.675781	1073.228516	3.565358
260.493042	1063.271973	1637.334595	1074.714478	1.993250
260.866425	1062.826050	1658.733887	1073.154175	1.733175
261.239838	1049.377319	1630.498901	1072.782715	4.027625
261.613159	1052.126465	1578.041016	1072.931274	3.955930
261.986511	1051.903442	1516.890015	1074.788940	4.921755
262.359802	1056.956177	1470.525024	1079.321411	5.407863
262.733063	1054.281250	1445.187866	1081.178833	6.880821
263.106293	1057.624878	1430.401733	1081.476196	6.398283
263.479523	1067.135742	1437.460449	1082.665039	4.193427
263.852692	1062.974731	1439.243652	1083.705200	5.509482
264.225861	1062.231812	1446.748413	1089.575073	7.111074
264.598969	1049.451782	1441.324219	1088.460571	9.954461
264.972076	1050.269165	1438.723633	1089.872192	10.195024
265.345154	1041.724243	1440.135376	1084.819702	10.816831
265.718201	1046.553833	1452.543945	1087.494629	10.084186
266.091217	1053.315308	1472.605591	1086.380005	7.885872
266.464203	1057.401978	1500.989258	1086.602905	6.582905
266.837158	1054.801392	1516.890015	1085.637085	6.673112
267.210114	1043.061523	1540.889771	1094.107544	10.253741
267.583038	1047.222534	1564.741089	1095.222168	9.274959
267.955902	1052.795166	1583.168091	1095.073486	7.971433
268.328766	1052.200806	1583.985352	1086.305786	6.413308
268.701569	1046.033691	1577.446777	1082.739258	6.907163
269.074371	1042.170044	1583.762329	1075.977661	6.242263
269.447144	1045.662231	1599.440430	1076.349243	5.541390
269.819885	1053.389648	1614.300903	1076.795044	4.172745
270.192596	1048.708496	1634.734009	1081.921997	5.667586
270.565277	1054.504150	1653.012573	1081.624634	4.531345
270.937927	1049.525879	1694.845093	1081.847656	5.008649
271.310577	1055.470093	1740.021118	1080.807373	3.701299
271.683136	1056.881836	1800.800781	1082.665039	3.465862
272.055725	1051.977905	1841.667358	1083.630859	4.008279
272.428284	1053.686890	1857.122192	1084.448242	3.828728
272.800812	1051.680786	1847.239868	1087.123169	4.455029
273.173279	1060.151245	1820.342407	1087.048950	3.538282
273.545776	1057.253418	1805.258911	1091.952759	4.638915
273.918152	1051.383423	1792.924683	1083.853882	4.378780
274.290558	1054.281250	1790.992798	1084.522461	4.104892
274.662964	1049.600220	1784.156860	1084.151001	4.703624
275.035278	1042.690186	1786.163086	1096.113647	7.185664
275.407593	1040.906860	1779.104492	1094.850586	7.307491
275.779907	1044.547607	1801.766724	1092.844360	6.378174
276.152161	1050.417480	1818.930664	1086.008667	4.631175
276.524384	1044.621948	1855.041870	1083.259277	4.767569
276.896606	1048.337036	1866.261353	1073.822998	3.115932
277.268799	1052.795288	1883.202515	1070.405151	2.120630
277.640930	1058.367920	1892.564453	1075.309082	2.030836
278.013031	1051.086304	1905.270142	1081.773315	3.592554
278.385162	1050.863403	1899.400391	1079.098389	3.327490
278.757233	1050.937622	1897.319946	1077.017944	3.081388
279.129272	1057.996460	1899.549194	1076.869263	2.242617
279.501282	1062.083130	1910.768921	1081.550415	2.293815
279.873230	1051.532104	1935.065796	1082.813599	3.540498
280.245178	1051.457764	1952.749878	1089.649292	4.237420
280.617126	1048.114136	2004.018555	1091.135498	4.500593
280.988983	1057.327759	2039.683960	1093.958984	3.728915
281.360870	1060.522705	2090.581299	1089.946777	2.856544
281.732697	1052.423706	2134.494141	1087.346069	3.227365
282.104492	1047.222534	2186.134521	1086.825928	3.477301
282.476288	1042.170044	2227.372803	1087.791870	3.849284
282.848053	1051.086304	2256.499268	1094.479126	3.599830
283.219757	1059.259644	2270.616943	1093.958984	2.864501
283.591461	1063.420532	2263.335205	1090.392456	2.247820
283.963135	1060.448364	2250.406494	1088.609253	2.366544
284.334747	1052.572388	2255.087402	1093.513184	3.404598
284.706360	1049.971802	2290.455566	1092.993042	3.468102
285.077942	1051.457886	2330.430420	1094.479126	3.363734
285.449524	1050.863281	2371.519775	1091.432617	3.071907
285.821014	1052.349487	2394.776611	1090.912598	2.872641
286.192535	1045.439331	2439.209717	1082.219238	2.638879
286.563995	1050.714844	2476.806885	1075.754883	1.755850
286.935425	1040.832520	2519.754150	1083.630859	2.893888
287.306824	1051.680786	2516.038818	1089.500854	2.582706
287.678223	1053.315430	2484.088623	1092.621460	2.747188
288.049561	1060.151367	2432.299561	1087.420288	1.987316
288.420898	1049.526001	2396.114258	1084.968262	2.632004
288.792145	1043.878906	2384.522705	1079.321289	2.643684
289.163452	1047.965576	2397.897461	1080.287231	2.394317
289.534668	1050.640503	2433.116943	1081.847656	2.257337
289.905914	1049.302979	2471.754150	1087.345947	2.674466
290.277039	1043.730347	2533.053955	1082.516235	2.604262
290.648193	1052.646606	2596.731445	1078.503906	1.674604
291.019318	1058.070801	2663.975586	1075.754761	1.101184
291.390381	1060.374146	2683.442871	1081.921875	1.327592
291.761475	1059.185425	2674.675049	1085.711426	1.641979
292.132507	1060.076904	2631.876709	1083.853882	1.512723
292.503510	1055.692993	2598.737549	1082.219116	1.719077
292.874481	1051.755005	2575.629639	1077.835327	1.711448
293.245422	1045.216431	2585.586182	1087.940430	2.773620
293.616364	1048.485840	2620.359619	1084.894043	2.316229
293.987213	1048.708618	2664.198486	1091.135376	2.626247
294.358093	1053.687012	2733.596924	1083.407837	1.769192
294.728943	1057.030640	2821.051514	1090.466675	1.895444
295.099731	1057.030518	2906.722412	1093.364624	1.964333
295.470490	1058.368042	2950.041016	1092.547241	1.806824
295.841248	1052.200806	2967.947998	1088.163452	1.877213
296.211975	1046.628052	3003.167236	1081.401855	1.777312
296.582642	1045.587891	3067.736328	1087.717407	2.083404
296.953308	1050.194702	3153.853516	1089.277832	1.857865
297.323883	1059.482544	3200.589844	1094.107544	1.617154
297.694519	1053.909790	3242.719482	1090.466675	1.670172
298.065063	1056.287476	3251.412842	1093.661743	1.702603
298.435608	1053.092529	3227.487061	1092.324341	1.804264
298.806122	1055.247192	3143.896484	1098.788574	2.084667
299.176575	1052.126587	3027.910156	1096.336548	2.237591
299.547028	1050.491821	2956.208252	1096.411011	2.409550
299.917450	1056.213257	2923.812256	1091.581177	1.893764
300.287872	1053.835449	2927.007080	1097.971313	2.356210
300.658234	1056.138794	2919.576904	1101.909424	2.456246
301.028564	1054.875610	2896.840088	1104.955811	2.718847
301.398865	1061.414307	2872.246094	1097.897095	2.014698
301.769135	1057.699219	2863.552734	1095.965210	2.118998
302.139374	1058.145020	2874.475342	1090.838257	1.799961
302.509583	1053.984009	2897.954834	1086.380127	1.756867
302.879791	1056.658813	2898.549072	1086.528687	1.621697
303.249939	1052.869507	2886.660889	1085.339844	1.770667
303.620087	1049.302979	2839.849854	1090.615234	2.307242
303.990173	1045.736450	2813.026611	1081.773193	2.039096
304.360260	1047.073853	2795.862549	1084.522339	2.141396
304.730286	1053.018066	2811.986328	1081.401733	1.613654
305.100281	1061.934448	2825.212158	1082.516357	1.167253
305.470276	1059.928223	2841.187500	1082.442017	1.263926
305.840179	1055.172852	2859.317383	1088.089111	1.824480
306.210144	1043.507324	2874.400391	1091.804199	2.637886
306.579987	1047.519653	2896.393799	1090.169434	2.306797
306.949890	1051.011963	2909.768799	1088.460449	2.014706
307.319702	1056.881836	2945.136719	1083.927979	1.432335
307.689484	1049.228638	2981.248047	1087.123047	1.961389
308.059265	1039.197754	3023.451904	1083.184937	2.216812
308.429016	1034.293945	3069.742920	1091.581177	2.814476
308.798737	1031.544800	3134.311523	1092.101440	2.879856
309.168396	1039.346558	3208.837158	1101.983643	2.887179
309.538055	1047.668335	3269.988281	1103.766968	2.524328
309.907684	1052.869629	3291.536133	1104.881470	2.323340
310.277313	1047.222534	3310.334717	1094.033325	2.068425
310.646851	1040.758179	3326.532471	1096.559570	2.441247
311.016388	1046.182251	3346.074219	1097.079590	2.213032
311.385895	1057.179077	3343.547852	1098.862793	1.823141
311.755371	1058.219360	3345.554443	1094.776245	1.598230
312.124817	1054.801392	3362.718018	1096.113647	1.790024
312.494232	1049.674561	3366.284424	1097.005371	2.043107
312.863617	1056.361816	3343.325195	1105.178833	2.134578
313.232971	1057.476318	3307.511475	1105.996094	2.156401
313.602295	1063.197632	3289.530029	1110.677124	2.132632
313.971619	1057.699219	3302.235596	1112.386108	2.436445
314.340820	1059.259521	3315.239014	1115.358154	2.486664
314.710083	1053.761230	3366.953369	1115.283813	2.659640
315.079285	1052.943848	3402.618896	1110.528442	2.450747
315.448486	1057.476318	3450.618408	1113.054688	2.322402
315.817596	1057.550537	3431.225342	1114.838013	2.413451
316.186707	1057.922119	3385.900391	1120.039307	2.668289
316.555786	1049.525879	3323.114990	1120.930786	3.140625
316.924866	1047.594116	3273.778076	1126.354980	3.537931
317.293884	1045.959351	3246.063232	1128.658325	3.758867
317.662872	1049.971680	3231.499756	1124.348755	3.409403
318.031830	1052.423706	3237.592529	1120.410767	3.111295
318.400757	1049.451660	3255.425049	1115.878296	3.011217
318.769684	1046.479614	3273.183594	1117.735840	3.200076
319.138550	1033.476563	3292.130859	1132.745117	4.395031
