Jaz Data File
++++++++++++++++++++++++++++++++++++
Date: Fri Jun 04 16:50:31 2021
User: jaz
Dark Spectrum Present: Yes
Reference Spectrum Present: Yes
Processed Spectrum Present: Yes
Spectrometers: JAZA3586
Integration Time (usec): 24900 (JAZA3586)
Spectra Averaged: 10 (JAZA3586)
Boxcar Smoothing: 1 (JAZA3586)
Correct for Electrical Dark: No (JAZA3586)
Strobe/Lamp Enabled: Yes (JAZA3586)
Correct for Detector Non-linearity: No (JAZA3586)
Correct for Stray Light: No (JAZA3586)
Number of Pixels in Processed Spectrum: 2048
>>>>>Begin Processed Spectral Data<<<<<
W	D	R	S	P
191.335022	0.000000	0.000000	0.000000	0.000000
191.713211	231.155762	234.127869	234.127869	100.000000
192.091385	464.763519	467.438385	473.011108	308.336578
192.469528	701.492004	705.652893	706.916077	130.358505
192.847641	713.603333	712.860291	713.677673	-10.004929
193.225739	723.857117	731.064453	715.906738	-110.309525
193.603790	734.482422	738.271790	722.371094	-319.613434
193.981842	733.739441	737.900330	723.188416	-253.576248
194.359863	736.117004	734.185120	729.355469	349.996826
194.737854	737.974609	738.123230	735.671204	-1549.856323
195.115829	740.500916	744.736145	744.438965	92.983139
195.493774	744.141785	746.147949	744.216064	3.702577
195.871704	743.472961	746.593750	743.844543	11.906672
196.249603	746.445068	755.361511	739.089172	-82.498100
196.627457	747.188171	758.556458	735.076843	-106.536095
197.005310	747.188171	764.203430	731.213135	-93.886536
197.383133	750.606140	760.339783	733.144958	-179.389999
197.760910	754.246887	757.293274	737.677429	-543.905273
198.138687	752.909485	756.327393	742.581360	-302.176819
198.516449	751.943542	754.989990	741.987000	-326.824677
198.894180	745.330566	752.612305	743.993164	-18.366526
199.271866	748.154053	751.572083	746.222229	-56.518635
199.649536	744.736145	746.816650	746.296570	75.002197
200.027191	745.553467	751.051941	746.073669	9.460855
200.404816	740.500916	744.364685	742.729980	57.691456
200.782410	742.432800	759.448059	742.952881	3.056554
201.159988	746.370850	763.311829	741.392578	-29.385973
201.537537	747.931152	776.314880	738.866272	-31.936892
201.915070	745.999268	771.559509	734.779602	-43.894989
202.292557	737.008606	778.320984	732.699219	-10.431225
202.670029	728.835388	777.726563	737.008789	16.717539
203.047485	720.885010	782.333313	737.305969	26.723211
203.424911	718.358704	770.667786	737.751770	37.073994
203.802292	723.188416	771.633789	739.014893	32.668705
204.179688	728.538147	771.930969	734.333801	13.356251
204.557037	728.835388	782.556335	733.219238	8.160411
204.934357	735.374023	782.704895	730.915955	-9.418945
205.311661	737.603088	775.571777	734.408020	-8.415009
205.688934	741.912659	776.091980	733.070618	-25.869562
206.066177	736.191406	769.999084	737.157227	2.856807
206.443390	740.278015	775.051758	740.055115	-0.641002
206.820587	744.216064	767.101318	740.872375	-14.610670
207.197769	743.101501	768.810242	730.692871	-48.266193
207.574921	737.751709	772.302429	733.665039	-11.828032
207.952042	727.052185	774.159973	729.726990	5.678052
208.329147	726.309082	773.045471	732.104736	12.400732
208.706223	732.179016	770.073425	739.089172	18.235292
209.083267	734.036621	768.364441	737.528809	10.173054
209.460297	734.333801	767.992920	735.819885	4.415101
209.837280	723.485596	767.398499	729.727051	14.213260
210.214264	726.457703	769.479004	729.206848	6.390196
210.591217	725.640381	767.101318	728.835449	7.706213
210.968124	722.668274	765.912415	723.114075	1.030893
211.345016	723.188416	764.054871	720.959290	-5.454659
211.721893	720.662109	770.370605	727.869446	14.499205
212.098724	717.095520	765.986755	727.349426	20.972893
212.475555	702.383606	762.048767	731.510315	48.816944
212.852356	708.773682	761.974426	732.179016	43.994373
213.229126	711.448547	765.838135	735.151062	43.579140
213.605865	725.417480	768.661621	740.426575	34.707809
213.982590	719.027527	761.602844	733.888000	34.903965
214.359283	722.445313	756.104492	723.708496	3.752865
214.735931	720.141907	760.785583	713.008972	-17.549925
215.112579	718.284363	756.104492	714.197754	-10.805381
215.489197	719.324646	761.825867	721.033630	4.021024
215.865799	714.049133	760.934143	732.104736	38.510395
216.242355	717.541321	764.203430	733.962341	35.191338
216.618896	722.816895	761.751465	738.123230	39.312969
216.995407	731.733215	762.866028	727.720886	-12.887782
217.371902	732.104675	764.277832	727.126465	-15.473180
217.748367	733.219238	768.736023	717.095520	-45.397461
218.124802	732.104675	763.683350	724.005676	-25.647053
218.501236	736.934387	768.067200	717.615723	-62.052422
218.877609	731.510315	760.265442	723.634216	-27.390242
219.253983	727.572266	757.516174	719.696106	-26.303045
219.630295	726.309082	750.829041	725.863281	-1.818114
220.006592	721.479431	749.342957	733.219238	42.133244
220.382889	720.142029	754.395508	734.779602	42.733101
220.759140	717.095520	761.751465	724.748718	17.138140
221.135391	717.764343	770.816406	719.844727	3.921399
221.511581	717.689941	775.497498	723.411316	9.897278
221.887772	714.420654	770.890808	734.036621	34.736874
222.263931	711.522888	761.454285	732.624817	42.261845
222.640060	704.984192	756.253113	733.516541	55.652328
223.016159	706.470276	760.785583	729.132568	41.723583
223.392212	709.145203	769.627625	730.767273	35.749348
223.768265	723.188416	774.457275	721.925293	-2.463723
224.144302	723.485596	775.200378	726.011902	4.885076
224.520294	731.881836	767.918640	721.182190	-29.690886
224.896286	728.389648	763.757751	730.990234	7.352913
225.272217	728.315247	766.135315	731.881836	9.430415
225.648148	724.525818	769.701843	740.055176	34.375221
226.024048	722.593933	772.599609	741.987000	38.781731
226.399902	718.953125	775.943359	738.791992	34.810993
226.775772	723.857178	779.064026	730.321533	11.709336
227.151581	729.206970	777.726563	724.748718	-9.188560
227.527374	734.036621	776.983582	731.361633	-6.228585
227.903137	730.395752	775.794739	737.380188	15.384563
228.278870	730.990234	779.807129	740.798157	20.091246
228.654572	736.042786	772.302490	736.711487	1.844199
229.030273	733.590759	765.912415	731.881836	-5.287240
229.405930	723.782776	759.893982	727.869446	11.316902
229.781555	724.674500	762.048767	727.646545	7.952118
230.157181	724.302917	765.838135	731.287354	16.815697
230.532761	731.658875	771.262207	731.510315	-0.375119
230.908325	720.885010	776.983582	722.668274	3.178805
231.283859	720.736389	776.091980	723.262695	4.563778
231.659332	713.603333	773.862793	721.702393	13.440313
232.034821	725.120300	770.816406	727.943787	6.178833
232.410263	722.668274	767.770020	727.200745	10.049436
232.785690	729.875671	768.438721	730.915833	2.697300
233.161087	724.228577	761.157043	724.600098	1.006056
233.536469	720.736328	767.472839	712.711670	-17.169998
233.911804	716.501160	763.163269	710.259766	-13.375722
234.287140	719.621826	766.878418	714.272034	-11.320733
234.662430	724.377258	766.655457	725.268860	2.108892
235.037704	723.485596	770.890625	728.761047	11.128464
235.412933	719.324646	778.023743	719.473206	0.253087
235.788162	718.210144	773.268372	717.764343	-0.809690
236.163345	720.142029	767.027039	715.758118	-9.350348
236.538513	718.953125	764.054932	721.702332	6.095558
236.913635	721.256531	774.903076	718.135803	-5.817201
237.288742	723.931458	778.172363	715.832458	-14.931534
237.663834	724.748779	776.017578	720.959290	-7.391415
238.038879	730.024231	771.410889	717.244141	-30.879736
238.413910	727.646545	774.754456	714.420654	-28.075733
238.788910	733.145020	777.800842	711.299988	-48.918663
239.163879	730.692932	778.692444	718.284424	-25.851322
239.538834	735.002502	776.166199	716.129639	-45.848320
239.913757	728.092346	775.200256	723.782898	-9.148035
240.288651	729.578430	777.057861	715.535217	-29.577467
240.663528	723.337097	777.726563	721.182312	-3.961769
241.038361	729.578430	778.915466	715.535217	-28.463835
241.413177	728.984070	784.190918	731.510254	4.575853
241.787979	732.327637	787.608887	728.909668	-6.182872
242.162735	732.699219	789.243469	733.070618	0.656829
242.537476	731.881775	785.156921	732.699158	1.534267
242.912170	731.807556	787.237305	739.237793	13.404781
243.286865	727.869446	788.054688	738.791992	18.148214
243.661514	726.532043	789.689270	731.956055	8.588109
244.036148	730.024231	789.317810	730.247070	0.375824
244.410751	730.767273	788.128906	726.086182	-8.160666
244.785339	733.516418	786.419983	727.349304	-11.657275
245.159882	724.823059	798.977234	729.578430	6.412817
245.534378	722.222412	799.348694	733.442200	14.547295
245.908890	715.758057	795.782166	737.528809	27.205242
246.283356	716.724060	782.407654	732.179016	23.529402
246.657791	721.553711	782.779114	727.943787	10.436968
247.032196	730.024231	790.357971	724.600098	-8.990215
247.406586	734.928223	803.509583	726.383362	-12.459451
247.780960	726.383362	808.710754	733.739441	8.935154
248.155289	717.987122	818.444519	729.206970	11.168763
248.529602	717.689941	815.620911	737.380188	20.106251
248.903870	725.268860	823.794250	741.392578	16.365038
249.278122	727.869446	818.370178	749.342957	23.727444
249.652344	716.501160	814.655029	744.290344	28.311859
250.026550	713.008972	800.983337	728.092346	17.145193
250.400711	707.659180	798.679932	722.445374	16.244860
250.774857	721.033630	795.187744	718.284424	-3.707423
251.148987	722.445374	795.633484	724.451477	2.741024
251.523071	726.383362	799.274414	723.931458	-3.363793
251.897125	723.262695	804.475586	731.584656	10.247093
252.271164	727.200745	806.704651	727.943665	0.934445
252.645187	728.909668	806.778992	725.640320	-4.198506
253.019165	729.578430	810.122620	718.655945	-13.560861
253.393112	724.600098	812.277344	719.473206	-5.847460
253.767044	723.336975	809.899719	728.018066	5.407743
254.140930	725.045959	806.704590	724.377197	-0.818973
254.514801	726.309082	810.122559	729.949890	4.343941
254.888657	735.374023	814.060608	726.457703	-11.331437
255.262466	731.361633	814.952209	729.429871	-2.310982
255.636276	734.408142	813.911926	723.931396	-13.177670
256.010010	727.943787	813.837708	718.210144	-11.332167
256.383759	733.144958	821.565186	716.055359	-19.327703
256.757446	724.600159	823.645691	723.708496	-0.900255
257.131134	723.114075	827.360840	729.727051	6.343579
257.504791	724.005676	835.162598	736.042725	10.828878
257.878418	723.857117	840.140808	731.584656	6.645420
258.252014	718.804504	848.388428	728.241028	7.282171
258.625580	711.448547	856.561768	726.383484	10.291920
258.999115	716.724060	875.731750	726.754944	6.308427
259.372650	717.318542	890.666748	726.383484	5.229325
259.746124	723.708496	902.480896	715.163757	-4.779675
260.119598	733.516418	926.257751	716.278259	-8.943675
260.493042	737.900208	938.666321	718.358704	-9.733467
260.866425	730.172852	952.783752	732.327637	0.967960
261.239838	711.448547	941.266907	740.872498	12.803133
261.613159	713.528992	925.886230	748.599915	16.515059
261.986511	715.386536	899.285828	747.931152	17.696978
262.359802	725.491699	881.824707	740.500977	9.600837
262.733063	731.584534	879.446960	729.504150	-1.406972
263.106293	734.408142	883.087830	731.213074	-2.148961
263.479523	732.104736	890.740967	728.761047	-2.107771
263.852692	721.702332	889.997986	734.259521	7.461387
264.225861	724.005676	890.815247	733.590820	5.746160
264.598969	728.612488	893.044434	736.117004	4.563904
264.972076	734.482422	900.325989	734.482422	0.000000
265.345154	734.333801	894.604736	732.401917	-1.205387
265.718201	729.281189	896.016541	727.200684	-1.247789
266.091217	732.699158	898.691406	725.343079	-4.431580
266.464203	733.144958	918.976074	722.371094	-5.797665
266.837158	735.671204	926.109131	730.618652	-2.653122
267.210114	726.011780	929.155579	730.024231	1.975178
267.583038	720.959290	928.263977	729.578430	4.157716
267.955902	718.953125	932.350586	723.262695	2.019504
268.328766	715.015137	941.787048	723.411316	3.702478
268.701569	712.414551	941.341125	727.052063	6.393977
269.074371	713.751953	946.839600	730.618652	7.236205
269.447144	720.884949	951.594971	731.881775	4.766514
269.819885	722.445313	966.529785	730.395752	3.257249
270.192596	725.863281	979.384094	725.789001	-0.029299
270.565277	721.627991	996.622375	731.658875	3.647669
270.937927	723.039795	1007.544861	728.389587	1.880386
271.310577	710.854065	1030.801636	733.590759	7.106381
271.683136	714.494934	1047.891235	725.640381	3.343003
272.055725	711.299988	1081.550415	732.030457	5.599040
272.428284	717.392761	1092.695801	733.665039	4.335770
272.800812	719.250305	1101.389160	738.717590	5.094296
273.173279	723.931396	1073.228516	735.225403	3.233352
273.545776	728.389587	1071.445190	730.098633	0.498183
273.918152	724.302917	1064.906616	727.200745	0.850791
274.290558	725.268860	1075.606079	732.104675	1.951210
274.662964	724.302917	1056.213135	734.779602	3.156482
275.035278	729.801270	1054.578491	736.339905	2.013268
275.407593	725.714661	1056.064575	732.699036	2.114235
275.779907	725.863281	1070.850708	730.990173	1.486110
276.152161	723.411316	1079.395630	735.151123	3.297844
276.524384	726.977844	1103.098145	731.361633	1.165528
276.896606	722.891113	1111.717285	735.596924	3.267735
277.268799	719.919128	1122.639771	727.720886	1.937263
277.640930	721.776672	1119.370483	737.677429	3.999247
278.013031	724.971680	1133.488037	732.624817	1.873398
278.385162	726.309082	1127.246582	735.671204	2.335057
278.757233	725.789001	1133.710938	728.018066	0.546444
279.129272	726.829163	1127.618042	731.064453	1.056738
279.501282	723.559875	1138.020386	723.188416	-0.089625
279.873230	729.058289	1142.850098	728.984070	-0.017936
280.245178	722.668274	1156.670532	720.439209	-0.513607
280.617126	728.166687	1174.205933	732.624817	0.999493
280.988983	714.420593	1199.617432	729.355469	3.078106
281.360870	717.615662	1234.762695	737.380188	3.821839
281.732697	718.953125	1270.947876	728.909668	1.803739
282.104492	728.538269	1296.731079	717.021240	-2.026958
282.476288	728.389465	1313.449097	719.175964	-1.574797
282.848053	724.748718	1322.662598	726.829163	0.347950
283.219757	717.318420	1323.480103	744.810486	4.535434
283.591461	719.324707	1321.250977	739.386414	3.332918
283.963135	723.262695	1319.318970	733.888000	1.782601
284.334747	723.114075	1329.349976	722.891174	-0.036768
284.706360	723.188293	1350.154663	725.194519	0.319989
285.077942	724.971619	1370.588013	726.680603	0.264706
285.449524	731.881836	1402.315063	725.640381	-0.930959
285.821014	732.030457	1420.519409	725.789001	-0.906544
286.192535	727.646545	1451.355103	731.138855	0.482557
286.563995	726.383484	1465.472656	735.671204	1.256644
286.935425	722.965515	1486.871704	736.265625	1.741066
287.306824	719.770508	1484.791382	728.166687	1.097510
287.678223	726.680664	1477.806763	726.234802	-0.059359
288.049561	733.739441	1457.076294	730.470032	-0.451990
288.420898	730.024231	1444.667847	737.528809	1.050115
288.792145	724.748718	1441.770020	739.312012	2.031082
289.163452	721.107910	1448.457153	737.900391	2.308723
289.534668	726.011902	1472.605591	739.609314	1.821260
289.905914	726.680603	1497.348267	745.553467	2.448898
290.277039	725.045898	1535.094238	745.850769	2.568349
290.648193	731.584656	1572.914429	745.033386	1.598509
291.019318	732.699158	1598.028687	739.237793	0.755624
291.390381	730.544373	1617.570313	744.587585	1.583179
291.761475	727.126465	1609.471313	741.243958	1.599997
292.132507	714.123474	1606.127808	743.324402	3.273631
292.503510	712.265930	1582.573730	740.278015	3.218641
292.874481	714.346375	1570.239380	747.856873	3.915267
293.245422	715.386536	1574.326050	741.615417	3.053636
293.616364	723.485596	1596.022461	733.813660	1.183682
293.987213	713.380432	1635.254395	726.383362	1.410489
294.358093	716.724060	1671.291138	738.197510	2.249548
294.728943	715.163635	1716.913086	740.723816	2.551554
295.099731	720.216309	1765.358398	737.974609	1.699128
295.470490	720.736328	1793.147827	730.618652	0.921505
295.841248	720.885010	1824.354858	732.550537	1.057168
296.211975	731.287354	1840.106934	738.717590	0.670103
296.582642	735.076843	1885.803101	742.358459	0.632784
296.953308	736.860107	1931.127808	739.534973	0.223975
297.323883	734.853943	1979.498657	734.928223	0.005968
297.694519	733.070618	2011.597656	731.733215	-0.104605
298.065063	733.070618	2009.739868	732.327637	-0.058197
298.435608	727.497986	1988.563843	731.510254	0.318165
298.806122	726.977844	1931.573608	727.795227	0.067855
299.176575	730.692871	1875.029175	726.532043	-0.363602
299.547028	733.962219	1836.837524	733.813782	-0.013459
299.917450	734.928223	1825.692261	741.392578	0.592645
300.287872	726.160461	1823.165894	739.980774	1.259822
300.658234	728.240967	1817.295898	736.637207	0.770966
301.028564	732.847717	1812.317749	734.408142	0.144555
301.398865	737.825989	1815.586914	739.312073	0.137886
301.769135	729.504089	1809.791382	740.055115	0.976687
302.139374	722.148132	1811.500366	735.002502	1.180001
302.509583	712.488770	1810.088501	738.717712	2.389664
302.879791	711.076965	1809.940063	741.615479	2.779101
303.249939	707.733398	1799.983398	746.593750	3.557826
303.620087	717.838562	1789.209595	747.039551	2.725572
303.990173	721.330811	1775.760742	740.575256	1.825104
304.360260	720.290527	1785.123047	744.736145	2.295724
304.730286	722.668274	1782.819702	740.129395	1.647040
305.100281	722.519592	1798.125977	746.370789	2.217465
305.470276	735.968445	1800.875000	742.729980	0.634942
305.840179	731.361633	1820.119507	738.346191	0.641516
306.210144	726.829285	1836.540405	730.841553	0.361560
306.579987	720.290588	1852.663940	727.275085	0.616802
306.949890	712.934631	1870.868164	731.658936	1.617045
307.319702	725.491760	1886.323120	731.287415	0.499268
307.689484	729.652771	1911.660278	731.881836	0.188583
308.059265	737.825989	1935.288696	731.138733	-0.558452
308.429016	727.349365	1967.907593	729.281250	0.155727
308.798737	723.411316	2000.526489	735.076843	0.913428
309.168396	723.634277	2049.046143	733.516418	0.745590
309.538055	726.011902	2088.575195	733.516418	0.550765
309.907684	725.863281	2122.308594	734.110901	0.590615
310.277313	723.039795	2149.428955	737.900391	1.041833
310.646851	727.275085	2172.017334	744.290344	1.177737
311.016388	728.686829	2186.134766	734.705322	0.412947
311.385895	724.525879	2176.549561	726.903503	0.163746
311.755371	727.646484	2178.778809	730.841553	0.220178
312.124817	731.584534	2176.772461	736.340027	0.329057
312.494232	733.144958	2178.852783	745.181946	0.832602
312.863617	733.813660	2163.398193	738.569031	0.332640
313.232971	732.104675	2149.800781	737.454529	0.377363
313.602295	741.095398	2141.627441	728.463867	-0.901909
313.971619	738.271790	2153.441406	729.578430	-0.614298
314.340820	737.677429	2161.763428	723.336975	-1.006994
314.710083	722.742615	2190.369873	724.674500	0.131633
315.079285	716.649719	2216.450195	728.983948	0.822391
315.448486	716.278259	2255.013428	741.243896	1.622478
315.817596	725.268860	2255.756348	737.528809	0.801049
316.186707	730.544373	2227.892822	735.225403	0.312621
316.555786	729.652649	2188.066650	726.606384	-0.208875
316.924866	726.309082	2146.605469	731.584656	0.371442
317.293884	714.717834	2128.772949	730.990173	1.150757
317.662872	712.488770	2122.754395	735.819824	1.654373
318.031830	715.609558	2140.735596	737.900391	1.564131
318.400757	726.309082	2149.280518	735.522644	0.647487
318.769684	727.720764	2160.277344	732.327637	0.321584
319.138550	721.999512	2182.791016	733.367859	0.778232
319.507416	717.764343	2212.511963	736.934387	1.282494
319.876190	715.163635	2229.675781	737.677429	1.486538
320.244995	722.891113	2222.022949	736.785828	0.926851
320.613770	725.640320	2197.800293	731.881775	0.423966
320.982483	736.042786	2178.630127	729.652771	-0.442955
321.351166	735.745544	2161.391846	728.686768	-0.495128
321.719818	732.847717	2159.682861	732.996338	0.010416
322.088440	725.491760	2157.082275	740.203796	1.027671
322.457062	721.479492	2179.893066	742.878662	1.467291
322.825623	721.256531	2214.740967	739.014893	1.189056
323.194183	714.569336	2254.790283	736.191406	1.403829
323.562653	712.340271	2298.183105	737.900330	1.611765
323.931183	710.705566	2351.978271	736.265686	1.557335
324.299591	715.981018	2422.343018	738.049011	1.293277
324.668060	720.662109	2479.556396	737.083008	0.933592
325.036407	725.268799	2521.908936	743.770203	1.029778
