Jaz Data File
++++++++++++++++++++++++++++++++++++
Date: Fri Jun 04 16:48:01 2021
User: jaz
Dark Spectrum Present: Yes
Reference Spectrum Present: Yes
Processed Spectrum Present: Yes
Spectrometers: JAZA3586
Integration Time (usec): 24900 (JAZA3586)
Spectra Averaged: 10 (JAZA3586)
Boxcar Smoothing: 1 (JAZA3586)
Correct for Electrical Dark: No (JAZA3586)
Strobe/Lamp Enabled: Yes (JAZA3586)
Correct for Detector Non-linearity: No (JAZA3586)
Correct for Stray Light: No (JAZA3586)
Number of Pixels in Processed Spectrum: 2048
>>>>>Begin Processed Spectral Data<<<<<
W	D	R	S	P
191.335022	0.000000	0.000000	0.000000	0.000000
191.713211	231.155762	234.127869	229.595413	-52.499744
192.091385	464.763519	467.438385	468.107178	125.002853
192.469528	701.492004	705.652893	705.801575	103.573311
192.847641	713.603333	712.860291	721.999512	-1129.973755
193.225739	723.857117	731.064453	734.036621	141.238098
193.603790	734.482422	738.271790	745.033386	278.436005
193.981842	733.739441	737.900330	751.794922	433.933289
194.359863	736.117004	734.185120	747.782532	-603.841797
194.737854	737.974609	738.123230	746.445129	5699.425293
195.115829	740.500916	744.736145	743.695984	75.440262
195.493774	744.141785	746.147949	748.748535	229.629745
195.871704	743.472961	746.593750	745.999329	80.952850
196.249603	746.445068	755.361511	745.702148	-8.332022
196.627457	747.188171	758.556458	742.284180	-43.137478
197.005310	747.188171	764.203430	746.519470	-3.930009
197.383133	750.606140	760.339783	746.742371	-39.695000
197.760910	754.246887	757.293274	744.438965	-321.952637
198.138687	752.909485	756.327393	744.884766	-234.784546
198.516449	751.943542	754.989990	739.163513	-419.505951
198.894180	745.330566	752.612305	740.278015	-69.386612
199.271866	748.154053	751.572083	740.723816	-217.383621
199.649536	744.736145	746.816650	746.890930	103.570274
200.027191	745.553467	751.051941	751.349121	105.404778
200.404816	740.500916	744.364685	758.482178	465.381348
200.782410	742.432800	759.448059	760.859863	108.297279
201.159988	746.370850	763.311829	759.002380	74.561989
201.537537	747.931152	776.314880	759.225281	39.790855
201.915070	745.999268	771.559509	761.825745	61.918339
202.292557	737.008606	778.320984	769.776123	79.316460
202.670029	728.835388	777.726563	763.980530	71.884430
203.047485	720.885010	782.333313	754.321228	54.413574
203.424911	718.358704	770.667786	750.160339	60.795631
203.802292	723.188416	771.633789	752.612305	60.736221
204.179688	728.538147	771.930969	756.030212	63.356251
204.557037	728.835388	782.556335	753.875427	46.611313
204.934357	735.374023	782.704895	753.429626	38.147625
205.311661	737.603088	775.571777	760.191162	59.491318
205.688934	741.912659	776.091980	755.658691	40.217396
206.066177	736.191406	769.999084	751.572021	45.494446
206.443390	740.278015	775.051758	746.668030	18.375977
206.820587	744.216064	767.101318	749.343018	22.402868
207.197769	743.101501	768.810242	747.262451	16.184961
207.574921	737.751709	772.302429	750.977539	38.279461
207.952042	727.052185	774.159973	761.305664	72.712982
208.329147	726.309082	773.045471	763.534729	79.650238
208.706223	732.179016	770.073425	760.785461	75.489883
209.083267	734.036621	768.364441	749.491516	45.021488
209.460297	734.333801	767.992920	747.411072	38.852089
209.837280	723.485596	767.398499	742.878662	44.162571
210.214264	726.457703	769.479004	747.708313	49.395554
210.591217	725.640381	767.101318	747.188171	51.971306
210.968124	722.668274	765.912415	754.915588	74.570366
211.345016	723.188416	764.054871	754.915710	77.636520
211.721893	720.662109	770.370605	768.141602	95.515846
212.098724	717.095520	765.986755	765.169434	98.328285
212.475555	702.383606	762.048767	761.677185	99.377220
212.852356	708.773682	761.974426	756.253113	89.245804
213.229126	711.448547	765.838135	755.287109	80.601021
213.605865	725.417480	768.661621	762.940369	86.769875
213.982590	719.027527	761.602844	757.367676	90.052528
214.359283	722.445313	756.104492	754.618469	95.585091
214.735931	720.141907	760.785583	750.234558	74.040176
215.112579	718.284363	756.104492	749.863098	83.497162
215.489197	719.324646	761.825867	753.206726	79.720253
215.865799	714.049133	760.934143	753.281067	83.676926
216.242355	717.541321	764.203430	750.829041	71.337791
216.618896	722.816895	761.751465	747.856934	64.313126
216.995407	731.733215	762.866028	746.296570	46.778152
217.371902	732.104675	764.277832	750.754700	57.967655
217.748367	733.219238	768.736023	752.537903	54.393055
218.124802	732.104675	763.683350	750.085938	56.941154
218.501236	736.934387	768.067200	752.686523	50.596573
218.877609	731.510315	760.265442	744.810486	46.253216
219.253983	727.572266	757.516174	745.553528	60.049816
219.630295	726.309082	750.829041	741.020996	59.999752
220.006592	721.479431	749.342957	746.296570	89.066757
220.382889	720.142029	754.395508	740.798157	60.303738
220.759140	717.095520	761.751465	736.711487	43.926888
221.135391	717.764343	770.816406	735.819824	34.033512
221.511581	717.689941	775.497498	731.064453	23.136269
221.887772	714.420654	770.890808	740.872375	46.841949
222.263931	711.522888	761.454285	743.472961	63.987942
222.640060	704.984192	756.253113	748.228333	84.347672
223.016159	706.470276	760.785583	748.079773	76.607315
223.392212	709.145203	769.627625	746.890930	62.407764
223.768265	723.188416	774.457275	751.646301	55.507156
224.144302	723.485596	775.200378	752.389343	55.890686
224.520294	731.881836	767.918640	749.714417	49.484356
224.896286	728.389648	763.757751	742.655701	40.335926
225.272217	728.315247	766.135315	738.494812	26.915777
225.648148	724.525818	769.701843	740.798096	36.019718
226.024048	722.593933	772.599609	746.890930	48.588478
226.399902	718.953125	775.943359	744.364746	44.589432
226.775772	723.857178	779.064026	739.089172	27.590771
227.151581	729.206970	777.726563	735.968445	13.935555
227.527374	734.036621	776.983582	739.534973	12.802657
227.903137	730.395752	775.794739	748.228333	39.279690
228.278870	730.990234	779.807129	754.023987	47.183979
228.654572	736.042786	772.302490	754.841309	51.844116
229.030273	733.590759	765.912415	748.748535	46.896656
229.405930	723.782776	759.893982	743.695984	55.144123
229.781555	724.674500	762.048767	740.798096	43.140903
230.157181	724.302917	765.838135	747.633972	56.171741
230.532761	731.658875	771.262207	749.788757	45.778679
230.908325	720.885010	776.983582	753.801086	58.675426
231.283859	720.736389	776.091980	751.274841	55.167782
231.659332	713.603333	773.862793	757.590515	72.996307
232.034821	725.120300	770.816406	755.510071	66.504074
232.410263	722.668274	767.770020	758.779480	80.066093
232.785690	729.875671	768.438721	749.343018	50.481865
233.161087	724.228577	761.157043	746.147949	59.356304
233.536469	720.736328	767.472839	741.169678	43.720314
233.911804	716.501160	763.163269	738.569031	47.292915
234.287140	719.621826	766.878418	734.853943	32.232788
234.662430	724.377258	766.655457	739.163513	34.973713
235.037704	723.485596	770.890625	743.398743	42.006401
235.412933	719.324646	778.023743	743.473083	41.139370
235.788162	718.210144	773.268372	743.844543	46.558708
236.163345	720.142029	767.027039	743.547363	49.920719
236.538513	718.953125	764.054932	743.695984	54.860016
236.913635	721.256531	774.903076	743.250183	40.997334
237.288742	723.931458	778.172363	744.884766	38.630085
237.663834	724.748779	776.017578	747.113831	43.623123
238.038879	730.024231	771.410889	741.689758	28.186686
238.413910	727.646545	774.754456	748.005554	43.217815
238.788910	733.145020	777.800842	745.033386	26.622210
239.163879	730.692932	778.692444	752.315002	45.046436
239.538834	735.002502	776.166199	752.612244	42.779785
239.913757	728.092346	775.200256	760.191162	68.138908
240.288651	729.578430	777.057861	759.076660	62.128441
240.663528	723.337097	777.726563	753.875427	56.147511
241.038361	729.578430	778.915466	753.206726	47.891602
241.413177	728.984070	784.190918	754.395508	46.029503
241.787979	732.327637	787.608887	754.098328	39.381691
242.162735	732.699219	789.243469	749.565735	29.828878
242.537476	731.881775	785.156921	744.216064	23.152052
242.912170	731.807556	787.237305	744.364685	22.654133
243.286865	727.869446	788.054688	743.398743	25.802500
243.661514	726.532043	789.689270	748.228333	34.352821
244.036148	730.024231	789.317810	749.045715	32.080177
244.410751	730.767273	788.128906	750.160339	33.808430
244.785339	733.516418	786.419983	746.296570	24.157448
245.159882	724.823059	798.977234	745.627747	28.055990
245.534378	722.222412	799.348694	746.668030	31.695574
245.908890	715.758057	795.782166	747.931152	40.204254
246.283356	716.724060	782.407654	749.863098	50.452534
246.657791	721.553711	782.779114	753.281006	51.820477
247.032196	730.024231	790.357971	762.940369	54.556767
247.406586	734.928223	803.509583	767.472839	47.454025
247.780960	726.383362	808.710754	768.958801	51.714790
248.155289	717.987122	818.444519	764.723633	46.523712
248.529602	717.689941	815.620911	759.745300	42.943882
248.903870	725.268860	823.794250	762.122986	37.405716
249.278122	727.869446	818.370178	755.435791	30.459803
249.652344	716.501160	814.655029	756.401672	40.650982
250.026550	713.008972	800.983337	752.240723	44.594524
250.400711	707.659180	798.679932	749.491516	45.959118
250.774857	721.033630	795.187744	747.188171	35.270519
251.148987	722.445374	795.633484	742.135559	26.903530
251.523071	726.383362	799.274414	743.918884	24.057167
251.897125	723.262695	804.475586	745.479187	27.355869
252.271164	727.200745	806.704651	743.621582	20.654127
252.645187	728.909668	806.778992	737.231628	10.687084
253.019165	729.578430	810.122620	737.454407	9.778454
253.393112	724.600098	812.277344	741.095398	18.813662
253.767044	723.336975	809.899719	751.274841	32.274700
254.140930	725.045959	806.704590	751.349121	32.211124
254.514801	726.309082	810.122559	753.132324	32.003494
254.888657	735.374023	814.060608	744.959045	12.181266
255.262466	731.361633	814.952209	747.931152	19.822233
255.636276	734.408142	813.911926	747.633972	16.635473
256.010010	727.943787	813.837708	750.828918	26.643482
256.383759	733.144958	821.565186	749.045715	17.983168
256.757446	724.600159	823.645691	747.708313	23.330839
257.131134	723.114075	827.360840	759.448181	34.853943
257.504791	724.005676	835.162598	760.934143	33.221924
257.878418	723.857117	840.140808	759.745300	30.862612
258.252014	718.804504	848.388428	748.079773	22.591743
258.625580	711.448547	856.561768	745.479187	23.451096
258.999115	716.724060	875.731750	752.835205	22.710314
259.372650	717.318542	890.666748	753.801086	21.045816
259.746124	723.708496	902.480896	752.612244	16.167902
260.119598	733.516418	926.257751	747.708252	7.363150
260.493042	737.900208	938.666321	750.680420	6.365722
260.866425	730.172852	952.783752	753.503906	10.480643
261.239838	711.448547	941.266907	759.150879	20.756536
261.613159	713.528992	925.886230	752.612305	18.404512
261.986511	715.386536	899.285828	748.748535	18.141451
262.359802	725.491699	881.824707	745.479248	12.785239
262.733063	731.584534	879.446960	752.760925	14.321686
263.106293	734.408142	883.087830	757.293396	15.392321
263.479523	732.104736	890.740967	760.785645	18.079670
263.852692	721.702332	889.997986	764.352112	25.342176
264.225861	724.005676	890.815247	766.283997	25.345261
264.598969	728.612488	893.044434	764.797852	22.006287
264.972076	734.482422	900.325989	756.030212	12.992841
265.345154	734.333801	894.604736	750.680420	10.199366
265.718201	729.281189	896.016541	743.844543	8.734413
266.091217	732.699158	898.691406	754.098328	12.891668
266.464203	733.144958	918.976074	754.098328	11.275490
266.837158	735.671204	926.109131	763.906250	14.826378
267.210114	726.011780	929.155579	759.596680	16.532574
267.583038	720.959290	928.263977	760.339783	18.996431
267.955902	718.953125	932.350586	752.612305	15.772999
268.328766	715.015137	941.787048	754.692688	17.496677
268.701569	712.414551	941.341125	760.339783	20.934761
269.074371	713.751953	946.839600	759.225281	19.509111
269.447144	720.884949	951.594971	757.144714	15.716598
269.819885	722.445313	966.529785	757.887756	14.520565
270.192596	725.863281	979.384094	762.568848	14.478325
270.565277	721.627991	996.622375	766.209656	16.211845
270.937927	723.039795	1007.544861	759.968262	12.979897
271.310577	710.854065	1030.801636	760.414063	15.490037
271.683136	714.494934	1047.891235	752.537903	11.410735
272.055725	711.299988	1081.550415	757.070496	12.362041
272.428284	717.392761	1092.695801	759.819641	11.304699
272.800812	719.250305	1101.389160	764.129150	11.744120
273.173279	723.931396	1073.228516	762.494568	11.040220
273.545776	728.389587	1071.445190	764.500671	10.526306
273.918152	724.302917	1064.906616	762.271667	11.147486
274.290558	725.268860	1075.606079	755.732971	8.695654
274.662964	724.302917	1056.213135	749.342957	7.544220
275.035278	729.801270	1054.578491	751.126221	6.566024
275.407593	725.714661	1056.064575	761.677246	10.886210
275.779907	725.863281	1070.850708	757.441956	9.153572
276.152161	723.411316	1079.395630	752.017822	8.035890
276.524384	726.977844	1103.098145	740.426575	3.575646
276.896606	722.891113	1111.717285	740.129395	4.433416
277.268799	719.919128	1122.639771	746.890930	6.697397
277.640930	721.776672	1119.370483	754.915710	8.334898
278.013031	724.971680	1133.488037	758.630859	8.239371
278.385162	726.309082	1127.246582	757.664856	7.820614
278.757233	725.789001	1133.710938	753.949707	6.903455
279.129272	726.829163	1127.618042	751.572083	6.173554
279.501282	723.559875	1138.020386	750.085999	6.400157
279.873230	729.058289	1142.850098	751.349121	5.386968
280.245178	722.668274	1156.670532	763.906311	9.501802
280.617126	728.166687	1174.205933	768.513123	9.045490
280.988983	714.420593	1199.617432	767.770020	10.995420
281.360870	717.615662	1234.762695	760.711243	8.333332
281.732697	718.953125	1270.947876	751.943542	5.976582
282.104492	728.538269	1296.731079	760.488342	5.623104
282.476288	728.389465	1313.449097	763.088867	5.930917
282.848053	724.748718	1322.662598	775.497498	8.487640
283.219757	717.318420	1323.480103	765.912415	8.016672
283.591461	719.324707	1321.250977	761.082703	6.937394
283.963135	723.262695	1319.318970	753.058044	4.998748
284.334747	723.114075	1329.349976	754.246887	5.135429
284.706360	723.188293	1350.154663	759.819580	5.842624
285.077942	724.971619	1370.588013	764.277771	6.088159
285.449524	731.881836	1402.315063	766.358215	5.142403
285.821014	732.030457	1420.519409	761.974365	4.349221
286.192535	727.646545	1451.355103	754.989929	3.778231
286.563995	726.383484	1465.472656	759.076660	4.423441
286.935425	722.965515	1486.871704	762.791748	5.213498
287.306824	719.770508	1484.791382	765.689514	6.002321
287.678223	726.680664	1477.806763	759.596680	4.382222
288.049561	733.739441	1457.076294	750.903259	2.372867
288.420898	730.024231	1444.667847	759.893860	4.179654
288.792145	724.748718	1441.770020	766.135315	5.772018
289.163452	721.107910	1448.457153	775.497498	7.477782
289.534668	726.011902	1472.605591	767.175598	5.513534
289.905914	726.680603	1497.348267	763.609070	4.791750
290.277039	725.045898	1535.094238	765.912415	5.044948
290.648193	731.584656	1572.914429	765.169434	3.991868
291.019318	732.699158	1598.028687	764.054871	3.623558
291.390381	730.544373	1617.570313	756.996094	2.982069
291.761475	727.126465	1609.471313	759.745300	3.696835
292.132507	714.123474	1606.127808	759.448059	5.081207
292.503510	712.265930	1582.573730	756.030090	5.028584
292.874481	714.346375	1570.239380	759.448059	5.269547
293.245422	715.386536	1574.326050	758.407898	5.008660
293.616364	723.485596	1596.022461	762.048645	4.419647
293.987213	713.380432	1635.254395	755.881531	4.610294
294.358093	716.724060	1671.291138	758.482178	4.374561
294.728943	715.163635	1716.913086	755.658691	4.042434
295.099731	720.216309	1765.358398	758.110657	3.625760
295.470490	720.736328	1793.147827	759.596680	3.623642
295.841248	720.885010	1824.354858	759.225159	3.474508
296.211975	731.287354	1840.106934	759.448059	2.539701
296.582642	735.076843	1885.803101	756.253113	1.840253
296.953308	736.860107	1931.127808	761.379944	2.053127
297.323883	734.853943	1979.498657	756.921814	1.773026
297.694519	733.070618	2011.597656	757.367676	1.900394
298.065063	733.070618	2009.739868	756.847595	1.862423
298.435608	727.497986	1988.563843	760.265442	2.598394
298.806122	726.977844	1931.573608	759.299500	2.683195
299.176575	730.692871	1875.029175	764.946472	2.993316
299.547028	733.962219	1836.837524	762.197266	2.560131
299.917450	734.928223	1825.692261	765.466614	2.799725
300.287872	726.160461	1823.165894	762.568848	3.318889
300.658234	728.240967	1817.295898	761.528625	3.056564
301.028564	732.847717	1812.317749	771.708069	3.599947
301.398865	737.825989	1815.586914	765.392334	2.557742
301.769135	729.504089	1809.791382	766.655457	3.439026
302.139374	722.148132	1811.500366	761.900085	3.649137
302.509583	712.488770	1810.088501	764.203430	4.711614
302.879791	711.076965	1809.940063	768.364441	5.213341
303.249939	707.733398	1799.983398	760.711243	4.850340
303.620087	717.838562	1789.209595	760.636963	3.994732
303.990173	721.330811	1775.760742	759.893860	3.657242
304.360260	720.290527	1785.123047	760.414063	3.768061
304.730286	722.668274	1782.819702	764.203430	3.917851
305.100281	722.519592	1798.125977	763.088928	3.771764
305.470276	735.968445	1800.875000	765.169434	2.742118
305.840179	731.361633	1820.119507	763.832031	2.982334
306.210144	726.829285	1836.540405	769.553284	3.850011
306.579987	720.290588	1852.663940	766.878418	4.114176
306.949890	712.934631	1870.868164	772.228210	5.120637
307.319702	725.491760	1886.323120	766.952698	3.571659
307.689484	729.652771	1911.660278	764.723633	2.967059
308.059265	737.825989	1935.288696	752.909485	1.259621
308.429016	727.349365	1967.907593	748.377014	1.695015
308.798737	723.411316	2000.526489	754.172607	2.408654
309.168396	723.634277	2049.046143	764.797913	3.105724
309.538055	726.011902	2088.575195	768.587402	3.124662
309.907684	725.863281	2122.308594	766.804016	2.931782
310.277313	723.039795	2149.428955	756.476013	2.344116
310.646851	727.275085	2172.017334	757.367676	2.082904
311.016388	728.686829	2186.134766	754.692688	1.784342
311.385895	724.525879	2176.549561	764.500732	2.753044
311.755371	727.646484	2178.778809	757.739197	2.073740
312.124817	731.584534	2176.772461	765.615234	2.354759
312.494232	733.144958	2178.852783	765.540955	2.240840
312.863617	733.813660	2163.398193	777.280762	3.040541
313.232971	732.104675	2149.800781	768.810242	2.589100
313.602295	741.095398	2141.627441	769.330383	2.016019
313.971619	738.271790	2153.441406	760.042542	1.538385
314.340820	737.677429	2161.763428	761.974426	1.706147
314.710083	722.742615	2190.369873	757.367676	2.359255
315.079285	716.649719	2216.450195	770.742188	3.606644
315.448486	716.278259	2255.013428	778.989746	4.075522
315.817596	725.268860	2255.756348	781.218811	3.655695
316.186707	730.544373	2227.892822	771.559387	2.739177
316.555786	729.652649	2188.066650	772.451111	2.934589
316.924866	726.309082	2146.605469	779.584167	3.750984
317.293884	714.717834	2128.772949	775.497498	4.298253
317.662872	712.488770	2122.754395	765.169434	3.735514
318.031830	715.609558	2140.735596	749.863037	2.403540
318.400757	726.309082	2149.280518	750.977539	1.733588
318.769684	727.720764	2160.277344	753.875427	1.825733
319.138550	721.999512	2182.791016	761.380066	2.695837
319.507416	717.764343	2212.511963	754.841309	2.480484
319.876190	715.163635	2229.675781	753.355286	2.521713
320.244995	722.891113	2222.022949	752.092102	1.947860
320.613770	725.640320	2197.800293	765.466614	2.705297
320.982483	736.042786	2178.630127	763.460449	1.900589
321.351166	735.745544	2161.391846	766.432617	2.152503
321.719818	732.847717	2159.682861	752.909485	1.406033
322.088440	725.491760	2157.082275	753.132385	1.930763
322.457062	721.479492	2179.893066	749.194336	1.900342
322.825623	721.256531	2214.740967	763.163269	2.805971
323.194183	714.569336	2254.790283	767.992920	3.468566
323.562653	712.340271	2298.183105	768.958923	3.570256
323.931183	710.705566	2351.978271	765.466614	3.336499
324.299591	715.981018	2422.343018	767.101257	2.995861
324.668060	720.662109	2479.556396	769.776123	2.792323
325.036407	725.268799	2521.908936	769.776184	2.477257
