Jaz Data File
++++++++++++++++++++++++++++++++++++
Date: Fri Jun 04 14:54:31 2021
User: jaz
Dark Spectrum Present: Yes
Reference Spectrum Present: Yes
Processed Spectrum Present: Yes
Spectrometers: JAZA3586
Integration Time (usec): 138000 (JAZA3586)
Spectra Averaged: 10 (JAZA3586)
Boxcar Smoothing: 1 (JAZA3586)
Correct for Electrical Dark: No (JAZA3586)
Strobe/Lamp Enabled: Yes (JAZA3586)
Correct for Detector Non-linearity: No (JAZA3586)
Correct for Stray Light: No (JAZA3586)
Number of Pixels in Processed Spectrum: 2048
>>>>>Begin Processed Spectral Data<<<<<
W	D	R	S	P
191.335022	0.000000	0.000000	0.000000	0.000000
191.713211	291.266663	290.003540	290.375031	70.589516
192.091385	583.202087	588.403259	590.335144	137.143265
192.469528	880.412903	884.796875	884.796814	99.998611
192.847641	890.889648	889.106384	898.765808	-441.670959
193.225739	901.886475	892.004150	904.115479	-22.555462
193.603790	917.267090	903.149597	922.468323	-36.842468
193.981842	927.595215	919.124695	927.520935	0.876921
194.359863	942.975830	928.115234	935.619873	49.499744
194.737854	944.461914	937.625977	942.084167	34.783035
195.115829	942.901550	937.328796	943.793152	-15.999299
195.493774	940.598145	937.848938	944.164612	-129.727142
195.871704	941.489746	940.598145	934.133789	825.027405
196.249603	942.158447	941.564026	935.545593	1112.485840
196.627457	938.443359	944.907715	933.687988	-73.562958
197.005310	929.304138	944.313293	931.384583	13.861169
197.383133	935.917053	952.412354	920.907898	-90.990494
197.760910	939.409241	955.310059	925.811829	-85.513916
198.138687	946.988220	953.749695	928.561035	-272.532043
198.516449	940.003723	943.347351	939.186340	-24.445986
198.894180	931.681824	932.499207	933.613708	236.350067
199.271866	929.601318	921.279480	937.254578	-91.965965
199.649536	929.304138	920.313538	928.115295	13.223174
200.027191	931.087402	921.353760	928.486816	26.717501
200.404816	932.350586	929.378479	926.257751	205.000519
200.782410	934.133850	941.564148	933.316467	-11.000673
201.159988	935.917053	955.533020	927.297852	-43.939724
201.537537	929.972839	965.192383	928.189636	-5.063107
201.915070	923.211365	965.861084	929.972839	15.853503
202.292557	916.003906	964.820801	936.139954	41.248112
202.670029	920.907898	957.762146	936.808777	43.145309
203.047485	923.805725	955.087219	934.059570	32.779270
203.424911	924.920227	958.505066	926.926453	5.973605
203.802292	917.341370	966.604187	923.508545	12.518926
204.179688	918.307373	962.740417	922.022461	8.361093
204.557037	923.285645	961.551514	926.926514	9.514665
204.934357	921.799561	959.248108	930.195801	22.420736
205.311661	923.880066	972.845459	929.750000	11.987924
205.688934	921.948181	965.117981	932.870605	25.301077
206.066177	919.421875	964.523621	930.567200	24.711515
206.443390	912.734680	961.031311	935.396973	46.923134
206.820587	901.886414	966.158203	934.728210	51.098309
207.197769	901.812195	970.616455	945.353516	63.282887
207.574921	906.567566	967.347107	943.718811	61.124588
207.952042	912.437317	968.610291	945.279114	58.465477
208.329147	917.118469	967.049866	932.945007	31.696566
208.706223	956.498840	1006.653259	972.028137	30.962969
209.083267	966.826965	1006.355957	966.232605	-1.503606
209.460297	968.313049	1004.498474	963.409119	-13.552226
209.837280	922.022522	965.712402	924.325867	5.272033
210.214264	918.307312	962.814636	924.771729	14.524388
210.591217	914.220642	966.455566	928.635437	27.596087
210.968124	922.245361	970.690735	924.846008	5.368205
211.345016	918.084290	974.034363	929.452637	20.318735
211.721893	918.678772	973.514221	926.777832	14.769753
212.098724	908.499329	970.244934	926.926453	29.843620
212.475555	910.951355	970.764954	924.697327	22.981348
212.852356	913.403381	961.700134	927.223633	28.615280
213.229126	920.536438	954.938477	933.019226	36.285023
213.605865	920.536438	950.183167	929.006897	28.571310
213.982590	916.821289	951.446350	925.737610	25.751062
214.359283	914.443604	957.762024	916.152527	3.945027
214.735931	913.923523	960.214050	912.511719	-3.049877
215.112579	916.598328	963.334717	914.517883	-4.451444
215.489197	911.619934	963.334778	915.781067	8.046303
215.865799	908.647949	964.003479	924.028625	27.785257
216.242355	908.425049	963.483398	921.205139	23.211903
216.618896	907.533447	961.031433	923.880066	30.555578
216.995407	907.756348	962.888977	916.598450	16.037874
217.371902	907.979248	962.443115	913.180481	9.549878
217.748367	911.620056	973.514221	915.186707	5.762498
218.124802	902.852295	981.539001	912.288818	11.992526
218.501236	903.223877	984.288147	920.387756	21.173174
218.877609	902.480896	975.074524	921.799561	26.612066
219.253983	910.579834	970.690735	926.034851	25.710838
219.630295	911.099854	975.520325	920.387878	14.417816
220.006592	907.236145	981.613281	916.747009	12.787350
220.382889	897.948303	985.848450	923.582825	29.163229
220.759140	895.050598	989.266418	934.728210	42.113533
221.135391	899.805908	990.158020	940.523865	45.065861
221.511581	903.743958	989.935120	939.409363	41.379421
221.887772	907.533386	994.616211	937.403137	34.300392
222.263931	914.443542	1013.414856	936.214172	21.996908
222.640060	922.765442	1020.102051	944.164734	21.984835
223.016159	920.164856	1024.857422	944.759094	23.491867
223.392212	923.434265	1020.845032	946.765320	23.951208
223.768265	919.273254	1023.445618	946.170898	25.820326
224.144302	916.449768	1022.702637	944.981995	26.853136
224.520294	902.555176	1032.584839	947.582520	34.628517
224.896286	905.601563	1048.039917	946.468018	28.690626
225.272217	908.499451	1058.888062	956.573181	31.966337
225.648148	918.158691	1062.306030	963.037537	31.134008
226.024048	911.174316	1065.649658	962.666016	33.333282
226.399902	909.688171	1089.129272	957.316223	26.542442
226.775772	906.047363	1105.475952	954.195557	24.143074
227.151581	906.418884	1133.562378	963.260498	25.024540
227.527374	906.047363	1150.206177	979.830017	30.219124
227.903137	906.716125	1181.859009	995.582214	32.298161
228.278870	909.168152	1231.195923	1015.495300	33.018005
228.654572	904.115479	1311.071533	1027.829590	30.399870
229.030273	894.307556	1406.699219	1048.857056	30.162376
229.405930	892.747131	1498.091431	1071.519531	29.532351
229.781555	903.743896	1561.397339	1089.946655	28.313204
230.157181	908.870850	1578.264038	1095.667969	27.905441
230.532761	914.963623	1545.496460	1087.123169	27.303820
230.908325	911.099915	1484.716919	1073.302856	28.277220
231.283859	919.347473	1439.095093	1065.575317	28.134394
231.659332	913.254639	1408.556641	1051.829346	27.977821
232.034821	918.084412	1396.593872	1049.080078	27.375774
232.410263	915.186584	1369.176270	1036.597290	26.743053
232.785690	911.471497	1345.027832	1027.978149	26.872322
233.161087	903.446777	1312.557495	1014.752258	27.206690
233.536469	904.487061	1300.891968	1007.024719	25.866899
233.911804	912.214539	1306.167603	1009.625305	24.726490
234.287140	915.558105	1326.600830	1013.712097	23.879267
234.662430	910.059753	1350.674927	1017.947327	24.485668
235.037704	917.564392	1361.374390	1025.006104	24.208944
235.412933	915.632507	1367.169922	1032.956421	25.983210
235.788162	912.808899	1367.764526	1043.210327	28.662449
236.163345	905.230164	1370.365112	1042.392944	29.488813
236.538513	902.852356	1381.807617	1044.473267	29.568714
236.913635	906.047363	1385.448364	1045.067871	28.998795
237.288742	912.511719	1400.829102	1045.439331	27.221561
237.663834	915.038025	1395.033691	1044.101929	26.888556
238.038879	912.065918	1398.228516	1043.358887	27.005980
238.413910	904.932861	1387.826172	1051.755005	30.404675
238.788910	898.468567	1398.823242	1057.550659	31.793865
239.163879	891.929932	1415.838501	1058.739380	31.839420
239.538834	887.991882	1443.850586	1063.420532	31.559937
239.913757	902.629456	1477.658203	1070.182007	29.138117
240.288651	907.236145	1518.450317	1091.804199	30.196953
240.663528	911.842957	1580.195923	1106.144653	29.071718
241.038361	905.081482	1651.452271	1120.559326	28.870081
241.413177	908.945129	1750.349243	1138.317749	27.260696
241.787979	908.870850	1853.184204	1164.992432	27.122520
242.162735	910.802734	1980.539063	1209.796997	27.950277
242.537476	913.031799	2100.760986	1252.520996	28.583046
242.912170	913.031799	2234.580322	1290.638306	28.573032
243.286865	916.078186	2302.195557	1308.842407	28.335566
243.661514	913.329041	2309.848877	1301.635132	27.805269
244.036148	907.459167	2226.852783	1272.805664	27.690487
244.410751	906.270264	2145.342529	1251.406494	27.854406
244.785339	905.229980	2046.519897	1229.858521	28.444004
245.159882	908.870911	2004.464355	1227.183716	29.053915
245.534378	906.716125	2011.374634	1224.583130	28.775139
245.908890	903.372498	2116.884521	1245.908081	28.226799
246.283356	906.344543	2283.471191	1300.223389	28.601496
246.657791	907.756348	2500.137939	1367.392944	28.864727
247.032196	922.394043	2763.541016	1454.252930	28.887367
247.406586	923.434265	3024.789795	1522.537109	28.510305
247.780960	920.090637	3206.682617	1572.542847	28.533827
248.155289	912.288818	3247.400391	1577.744019	28.497791
248.529602	911.174316	3139.661377	1534.722778	27.980799
248.903870	908.127930	2940.753174	1478.698364	28.070616
249.278122	904.264099	2705.733643	1420.667969	28.665701
249.652344	899.731628	2504.075928	1370.810913	29.362732
250.026550	902.926575	2352.275635	1327.269409	29.278166
250.400711	906.790344	2250.258057	1291.158325	28.610138
250.774857	906.121765	2172.314453	1275.406250	29.164953
251.148987	903.149597	2138.135010	1265.969727	29.378496
251.523071	900.549011	2143.930664	1263.592041	29.198038
251.897125	904.115540	2196.091064	1277.189331	28.876226
252.271164	910.356934	2263.186523	1288.409180	27.945297
252.645187	922.765564	2312.895264	1309.659668	27.831512
253.019165	929.824219	2334.888672	1303.344116	26.583826
253.393112	929.378418	2316.535889	1307.876587	27.285883
253.767044	918.976074	2260.511719	1294.279053	27.975624
254.140930	920.164856	2173.651611	1280.978882	28.784828
254.514801	921.725281	2086.643311	1251.034912	28.268911
254.888657	920.684998	2017.839233	1226.663696	27.888393
255.262466	912.585938	1986.780396	1215.146729	28.166296
255.636276	922.171082	1994.285034	1216.930054	27.493248
256.010010	922.022400	2020.662476	1225.623413	27.634254
256.383759	922.914063	2071.931396	1243.901855	27.935852
256.757446	904.561340	2120.822510	1264.186401	29.568077
257.131134	908.276550	2198.989014	1291.827026	29.716185
257.504791	912.065918	2287.186279	1314.786621	29.286215
257.878418	919.273254	2408.968506	1346.142334	28.654791
258.252014	920.684998	2560.100342	1386.563110	28.417334
258.625580	925.143127	2757.968506	1446.302612	28.434759
258.999115	921.353699	2991.799072	1512.208984	28.537594
259.372650	919.644775	3289.307373	1597.285522	28.596508
259.746124	909.316711	3606.430908	1686.969116	28.832758
260.119598	909.762512	3924.594971	1764.466797	28.349976
260.493042	906.716064	4129.001953	1817.667603	28.270351
260.866425	909.390930	4170.686035	1812.020508	27.677029
261.239838	917.118469	4022.823486	1776.206665	27.661615
261.613159	913.106201	3749.538330	1694.993774	27.565884
261.986511	911.620117	3436.426514	1607.539429	27.563274
262.359802	903.595398	3174.806641	1534.276733	27.768503
262.733063	911.620117	2994.919922	1475.726196	27.077528
263.106293	911.768738	2894.016602	1457.522095	27.532045
263.479523	917.489990	2830.562256	1440.358276	27.331341
263.852692	918.827454	2794.970947	1431.590454	27.330690
264.225861	920.833679	2752.321289	1419.627930	27.234379
264.598969	917.490051	2727.207031	1406.996460	27.048782
264.972076	911.694397	2718.587891	1415.838257	27.901138
265.345154	910.059753	2747.417236	1430.252930	28.312029
265.718201	914.517883	2796.234375	1452.023804	28.564659
266.091217	918.753113	2883.391357	1474.091797	28.266716
266.464203	912.437500	2996.703125	1501.880859	28.280626
266.837158	907.607727	3112.169189	1538.437866	28.614767
267.210114	900.474670	3210.843750	1557.682251	28.445999
267.583038	906.418945	3274.595459	1568.679077	27.964981
267.955902	902.852356	3308.997314	1571.576782	27.792358
268.328766	909.019470	3307.214111	1566.450073	27.413565
268.701569	912.363098	3300.824219	1559.465454	27.092855
269.074371	916.524109	3292.725342	1554.189941	26.835516
269.447144	915.632385	3323.040771	1562.809082	26.882713
269.819885	912.734680	3373.120850	1585.917358	27.360853
270.192596	911.545837	3476.327393	1614.152344	27.394400
270.565277	916.895691	3616.611084	1664.232422	27.682056
270.937927	909.019531	3820.423096	1704.207153	27.312862
271.310577	903.669678	4052.247803	1773.160156	27.615337
271.683136	893.787415	4273.966797	1833.939819	27.813683
272.055725	897.725403	4425.767090	1878.669922	27.804220
272.428284	904.932800	4501.332520	1886.026001	27.279871
272.800812	907.236267	4432.231445	1863.066406	27.115786
273.173279	909.465332	4301.606934	1825.840820	27.014660
273.545776	910.654236	4151.070313	1789.580933	27.123884
273.918152	909.242432	4054.922607	1756.442017	26.932159
274.290558	909.242371	3982.477295	1738.163574	26.972269
274.662964	906.195984	3915.827881	1720.702515	27.063328
275.035278	905.007080	3885.364014	1721.891235	27.408937
275.407593	907.384766	3881.500000	1729.618774	27.646339
275.779907	904.115479	3928.756592	1750.572266	27.985363
276.152161	909.093750	4013.684570	1755.178833	27.252708
276.524384	908.499329	4117.708496	1777.395508	27.075087
276.896606	905.898743	4197.509277	1785.791626	26.731379
277.268799	903.743958	4226.933105	1797.531372	26.895472
277.640930	898.988586	4239.490234	1799.909180	26.969620
278.013031	901.663513	4238.524902	1796.862793	26.827583
278.385162	905.675842	4231.540039	1794.930786	26.737560
278.757233	912.511719	4210.363770	1788.540894	26.563629
279.129272	913.106140	4214.227539	1790.769897	26.586838
279.501282	914.146301	4222.697754	1795.822632	26.648409
279.873230	910.208313	4284.889160	1812.689087	26.742699
280.245178	917.267090	4385.123535	1836.986206	26.521257
280.617126	914.443542	4545.840332	1879.710083	26.581137
280.988983	910.579773	4718.223145	1930.756226	26.792858
281.360870	912.214539	4892.313965	1989.083862	27.056345
281.732697	923.285645	5068.336914	2032.922485	26.770159
282.104492	930.641602	5202.676270	2057.665039	26.381420
282.476288	925.143250	5301.275879	2066.804199	26.088350
282.848053	911.025696	5351.133301	2075.646240	26.229559
283.219757	910.059753	5349.721680	2078.172852	26.310854
283.591461	909.836914	5289.536621	2064.649658	26.367395
283.963135	911.620117	5220.732422	2055.362061	26.542402
284.334747	915.260925	5208.620605	2056.922363	26.591328
284.706360	916.449768	5279.951172	2076.909912	26.594702
285.077942	921.205139	5423.281738	2113.020752	26.472576
285.449524	911.025696	5586.673340	2140.067139	26.286016
285.821014	901.291992	5683.860840	2167.336182	26.472054
286.192535	899.731628	5805.717285	2183.385498	26.165052
286.563995	901.589172	5880.763184	2207.533936	26.228144
286.935425	909.465271	5946.372559	2215.261230	25.924557
287.306824	909.465271	5879.648438	2199.583252	25.957151
287.678223	916.226807	5741.742676	2156.264893	25.697525
288.049561	916.895569	5607.700684	2117.552979	25.595978
288.420898	912.511719	5480.048340	2091.472900	25.811750
288.792145	904.412781	5455.156738	2087.757568	26.003325
289.163452	908.202209	5483.764160	2094.445068	25.925623
289.534668	907.607727	5606.437988	2117.479004	25.748352
289.905914	910.356934	5751.922363	2156.339355	25.735115
290.277039	907.830566	5917.320313	2204.041748	25.875114
290.648193	915.929688	6094.309082	2256.350830	25.884954
291.019318	913.849121	6237.861816	2278.864502	25.638845
291.390381	911.545837	6273.155762	2277.303955	25.472910
291.761475	905.898743	6193.800781	2251.966797	25.455618
292.132507	906.790466	6076.847656	2223.286133	25.463850
292.503510	910.877136	5968.960938	2202.778564	25.541319
292.874481	923.508545	5918.286621	2198.023193	25.516941
293.245422	921.279480	5931.809082	2204.635986	25.613188
293.616364	913.626282	6057.083496	2233.168213	25.654768
293.987213	902.183594	6231.769531	2271.062500	25.684526
294.358093	906.047363	6451.705566	2327.160889	25.625696
294.728943	901.960754	6667.703613	2381.402100	25.659164
295.099731	897.576843	6882.289551	2430.442139	25.613012
295.470490	900.251770	7033.421387	2479.407715	25.747797
295.841248	905.898743	7162.856934	2506.973877	25.588717
296.211975	905.973083	7264.800293	2548.360352	25.828461
296.582642	911.768738	7425.145996	2590.118408	25.767731
296.953308	915.706726	7585.267578	2636.037842	25.793768
297.323883	915.855286	7717.897949	2645.251221	25.424658
297.694519	912.288757	7727.631348	2635.814697	25.288910
298.065063	906.641785	7624.425293	2602.824219	25.249136
298.435608	901.812195	7408.056152	2551.555176	25.356302
298.806122	900.994812	7093.755371	2481.190674	25.516823
299.176575	899.954590	6753.522949	2412.237549	25.835232
299.547028	894.901917	6503.122559	2357.550781	26.080444
299.917450	891.038269	6358.455078	2313.786865	26.022316
300.287872	893.564514	6283.855469	2284.511475	25.804674
300.658234	910.728455	6198.184082	2260.585938	25.529432
301.028564	914.592285	6121.949707	2239.855469	25.449821
301.398865	910.654114	6059.757813	2225.960938	25.544386
301.769135	898.171326	6019.857910	2213.552490	25.682577
302.139374	893.490234	6000.835938	2212.511963	25.825974
302.509583	900.251770	5968.365723	2197.725830	25.600731
302.879791	908.499329	5888.268066	2170.828369	25.349152
303.249939	909.539612	5768.937500	2145.565186	25.435778
303.620087	908.202148	5660.678223	2128.921631	25.685968
303.990173	913.923523	5595.664063	2122.977295	25.824875
304.360260	916.672668	5544.766113	2101.281006	25.596035
304.730286	920.759277	5528.122559	2085.974609	25.290285
305.100281	911.322937	5510.661621	2090.655518	25.641348
305.470276	904.041199	5525.076172	2099.646240	25.873098
305.840179	898.319824	5518.834473	2110.940430	26.244276
306.210144	903.669617	5542.240234	2097.045654	25.727234
306.579987	917.192688	5563.267578	2106.556396	25.599325
306.949890	924.771667	5629.471191	2106.927979	25.127134
307.319702	925.291748	5700.281738	2136.351807	25.362566
307.689484	918.381653	5818.200684	2154.779053	25.233534
308.059265	915.855408	5913.753906	2193.787842	25.569395
308.429016	911.471497	6054.111816	2221.651367	25.476795
308.798737	907.161926	6158.878418	2264.672607	25.848898
309.168396	901.440613	6299.459473	2284.882813	25.628700
309.538055	905.155762	6377.031250	2296.919922	25.434866
309.907684	913.849121	6430.454590	2292.907471	24.998314
310.277313	908.722351	6445.463379	2295.136719	25.040258
310.646851	904.858459	6442.789063	2299.000488	25.174423
311.016388	899.583008	6442.045410	2305.316162	25.362972
311.385895	916.078186	6364.622559	2288.226563	25.183762
311.755371	913.106140	6309.712402	2265.266846	25.055758
312.124817	905.824463	6235.632813	2243.422119	25.096542
312.494232	905.973145	6194.989746	2232.276611	25.076561
312.863617	911.397217	6105.231934	2217.267334	25.142696
313.232971	916.078186	6059.164063	2200.995117	24.983385
313.602295	907.236145	6051.361816	2203.967041	25.207996
313.971619	911.991516	6116.971191	2225.366455	25.233049
314.340820	915.781067	6159.546875	2240.152588	25.256117
314.710083	919.198975	6223.521484	2259.025635	25.259150
315.079285	915.632385	6229.837402	2256.573486	25.233147
315.448486	920.982239	6239.422363	2259.471436	25.166952
315.817596	923.657166	6113.776855	2216.970215	24.918751
316.186707	916.821289	5963.982910	2171.497070	24.859037
316.555786	914.963684	5769.160645	2116.958740	24.761978
316.924866	909.093811	5622.338379	2086.420654	24.979116
317.293884	911.248596	5529.682129	2068.661865	25.060734
317.662872	900.549011	5472.841309	2055.138916	25.251881
318.031830	900.400391	5477.818848	2059.968750	25.332365
318.400757	902.555176	5501.150391	2073.120117	25.454838
318.769684	909.093750	5555.985840	2088.203857	25.374166
319.138550	903.298157	5595.886719	2086.197510	25.207825
319.507416	898.096985	5617.657715	2074.086182	24.917347
319.876190	901.069092	5601.830566	2064.947021	24.759348
320.244995	910.059753	5556.357422	2063.460938	24.824089
320.613770	916.375488	5478.488281	2051.869873	24.889660
320.982483	910.802795	5418.600098	2037.306152	24.990108
321.351166	905.675842	5369.411621	2023.783203	25.048691
