Jaz Data File
++++++++++++++++++++++++++++++++++++
Date: Fri Jun 04 16:47:17 2021
User: jaz
Dark Spectrum Present: Yes
Reference Spectrum Present: Yes
Processed Spectrum Present: Yes
Spectrometers: JAZA3586
Integration Time (usec): 61000 (JAZA3586)
Spectra Averaged: 10 (JAZA3586)
Boxcar Smoothing: 1 (JAZA3586)
Correct for Electrical Dark: No (JAZA3586)
Strobe/Lamp Enabled: Yes (JAZA3586)
Correct for Detector Non-linearity: No (JAZA3586)
Correct for Stray Light: No (JAZA3586)
Number of Pixels in Processed Spectrum: 2048
>>>>>Begin Processed Spectral Data<<<<<
W	D	R	S	P
191.335022	0.000000	0.000000	0.000000	0.000000
191.713211	226.474716	230.784256	228.109360	37.930813
192.091385	460.008179	466.546783	462.385834	36.363338
192.469528	701.789246	703.349609	703.200928	90.471344
192.847641	722.519592	716.947021	709.813904	228.004074
193.225739	732.847656	724.674377	718.581604	174.545029
193.603790	736.042725	731.287354	723.262695	268.749359
193.981842	737.305969	738.197510	740.055115	308.359009
194.359863	742.284180	741.838379	744.438965	-483.351593
194.737854	745.107666	748.302734	749.714539	144.186981
195.115829	750.680420	744.959167	746.593750	71.429642
195.493774	756.178772	749.120056	744.141785	170.526596
195.871704	764.277832	749.342957	744.141785	134.825684
196.249603	762.420227	752.612305	749.937439	127.272499
196.627457	756.698914	759.596680	759.745361	105.130905
197.005310	758.705078	755.732910	763.980652	-177.499176
197.383133	754.395508	754.172607	764.872253	-4700.191895
197.760910	759.373840	746.519470	762.866028	-27.167316
198.138687	750.977600	752.166443	766.135437	1275.007690
198.516449	752.463623	750.383118	753.949707	-71.428993
198.894180	754.618469	743.101501	746.742371	68.386909
199.271866	752.686584	737.083008	738.866211	88.571831
199.649536	750.308899	740.129395	751.126282	-8.029692
200.027191	745.479187	748.079834	749.045715	137.140045
200.404816	748.005554	754.395569	746.147949	-29.070435
200.782410	751.423401	766.506836	750.977600	-2.955565
201.159988	743.398743	778.469543	763.832031	58.262966
201.537537	738.420471	784.562439	769.404724	67.149834
201.915070	740.203674	782.630615	767.175598	63.572636
202.292557	747.336731	782.036133	762.271667	43.040905
202.670029	753.652527	780.772949	762.345886	32.054661
203.047485	748.377014	781.516052	760.488342	36.547012
203.424911	744.810486	776.240540	760.562683	50.118263
203.802292	741.987000	777.652344	761.008484	53.333241
204.179688	745.553467	774.977356	755.658630	34.343399
204.557037	746.668030	769.999084	751.051941	18.790026
204.934357	743.101563	769.924805	749.863098	25.207748
205.311661	743.695984	763.460449	749.342957	28.571341
205.688934	743.695984	770.519226	751.349121	28.531738
206.066177	740.500977	768.958923	748.674255	28.720551
206.443390	737.157410	773.342712	753.726807	45.790405
206.820587	734.036621	770.445007	760.636963	73.061028
207.197769	740.426575	765.095154	756.773254	66.265182
207.574921	737.974609	766.729797	752.166443	49.353992
207.952042	739.089172	774.828796	744.364746	14.761134
208.329147	740.649475	789.169189	756.996155	33.690800
208.706223	755.435730	809.528137	783.002136	50.961693
209.083267	757.367615	802.617981	787.608826	66.830864
209.460297	753.503906	793.775940	776.240540	56.457623
209.837280	737.677429	772.451111	753.355286	45.085407
210.214264	733.516418	769.776184	753.652527	55.532925
210.591217	726.383484	768.958923	763.311829	86.736259
210.968124	719.919128	766.506836	768.067200	103.349304
211.345016	723.411316	765.540955	771.782410	114.814880
211.721893	735.596863	766.209656	770.742126	114.805809
212.098724	743.175781	767.472839	769.330322	107.644890
212.475555	741.318176	773.342773	769.479004	87.934998
212.852356	736.785828	772.005310	769.033142	91.561012
213.229126	739.757874	772.748352	761.454285	65.765678
213.605865	736.191406	770.519226	753.132324	49.350403
213.982590	725.491760	768.215820	747.336731	51.130371
214.359283	721.851013	766.952637	750.011719	62.438343
214.735931	719.844727	762.271667	750.457520	72.154137
215.112579	731.138733	771.708008	752.092102	51.648369
215.489197	728.463867	770.742126	750.234558	51.493820
215.865799	736.785828	777.949524	749.937317	31.949244
216.242355	737.454529	772.896973	754.692688	48.637051
216.618896	741.392578	768.736023	748.599915	26.358553
216.995407	739.386414	760.636963	750.308899	51.398602
217.371902	730.470032	752.240723	741.987000	52.901249
217.748367	727.497986	768.215820	748.525574	51.642204
218.124802	724.154358	776.612061	748.154053	45.750565
218.501236	729.281250	787.460266	744.513184	26.181147
218.877609	730.321472	778.989746	744.290344	28.702213
219.253983	730.990173	778.841125	744.884766	29.037233
219.630295	733.442139	770.147705	753.429626	54.453560
220.006592	729.206848	765.318054	758.779358	81.892891
220.382889	725.714661	756.104492	760.339783	113.936539
220.759140	720.587708	768.290100	759.076599	80.685455
221.135391	722.891174	772.896912	756.030212	66.270470
221.511581	724.377258	777.726563	752.017883	51.810658
221.887772	718.135803	772.302429	749.268738	57.476231
222.263931	719.621887	773.788574	744.736145	46.364765
222.640060	721.256531	773.491394	749.045715	53.200455
223.016159	730.172852	768.513000	742.655701	32.558167
223.392212	730.841553	762.345886	752.463684	68.632248
223.768265	727.795166	758.779358	749.342957	69.544464
224.144302	731.064453	758.184998	765.912415	128.492859
224.520294	731.658875	760.116882	757.664856	91.383705
224.896286	739.534973	764.797913	762.940369	92.647156
225.272217	735.448303	773.565613	760.265442	65.107269
225.648148	738.717712	775.497559	762.717468	65.252464
226.024048	736.265625	771.039368	757.962097	62.393261
226.399902	734.705261	769.479004	751.720642	48.931694
226.775772	727.795166	768.438721	747.782532	49.177208
227.151581	734.482422	773.714172	750.383118	40.530170
227.527374	729.801270	774.977356	755.807312	57.565948
227.903137	734.110840	771.708008	753.949707	52.766918
228.278870	730.247253	771.559387	753.652527	56.654720
228.654572	737.008728	766.358337	748.376953	38.733822
229.030273	738.717712	770.816406	751.497620	39.814415
229.405930	734.333740	771.410828	751.051941	45.090382
229.781555	735.448303	779.435547	756.104492	46.959499
230.157181	732.996338	776.612061	755.510071	51.618389
230.532761	737.083008	778.395325	749.120056	29.136705
230.908325	740.798157	769.553284	743.473083	9.302434
231.283859	751.497742	776.166260	744.290344	-29.216986
231.659332	743.770264	769.479004	747.633972	15.028774
232.034821	735.448303	769.330383	749.342957	41.008854
232.410263	722.148132	770.816406	751.200500	59.694675
232.785690	730.544373	776.760681	749.640137	41.318237
233.161087	739.906494	780.847229	749.788757	24.137972
233.536469	742.878601	774.680176	753.206726	32.476772
233.911804	737.677429	779.212646	760.488342	54.919449
234.287140	731.436035	776.091980	758.110657	59.733639
234.662430	732.773438	775.348877	758.482239	60.384113
235.037704	738.940613	759.670959	753.801086	71.684639
235.412933	733.813721	765.020813	756.253113	71.904785
235.788162	734.036621	768.364441	750.234558	47.186035
236.163345	729.949890	774.903076	752.463623	50.082619
236.538513	735.225403	772.228210	752.389343	46.385509
236.913635	728.538147	773.268372	756.327393	62.126328
237.288742	729.875671	777.429382	757.070374	57.187340
237.663834	730.767273	776.760559	761.454285	66.720634
238.038879	740.575195	782.704834	763.609070	54.673801
238.413910	740.352356	788.574768	759.968262	40.677986
238.788910	743.398743	794.890564	755.955872	24.386648
239.163879	729.206848	789.837952	750.531738	35.171535
239.538834	722.668274	777.355164	757.070374	62.907398
239.913757	717.095459	772.079590	758.036316	74.459404
240.288651	730.172852	765.615234	758.036316	78.616226
240.663528	734.556641	771.262268	752.537903	48.987755
241.038361	735.968445	768.513000	751.497742	47.717033
241.413177	731.213074	769.479004	757.441956	68.543694
241.787979	729.058350	769.776184	761.974365	80.839310
242.162735	734.853821	775.423157	764.575012	73.260239
242.537476	729.429749	779.881348	760.636902	61.855629
242.912170	743.844482	781.070129	761.528564	47.505104
243.286865	733.367859	780.772949	754.023987	43.573650
243.661514	738.197510	773.862793	750.977539	35.833248
244.036148	721.107849	772.822571	750.160217	56.178139
244.410751	718.581543	769.776184	755.361511	71.843391
244.785339	723.039795	773.788513	750.457520	54.026436
245.159882	728.538147	778.172363	749.863037	42.964092
245.534378	738.494690	778.543945	751.646301	32.838593
245.908890	735.151123	776.314758	759.819641	59.927940
246.283356	732.179016	774.680176	760.636963	66.958046
246.657791	728.909668	781.144531	752.909485	45.945976
247.032196	722.816895	791.844055	749.045715	37.997826
247.406586	722.742493	792.810059	747.931213	35.949188
247.780960	719.993347	792.661438	756.327393	50.000000
248.155289	732.104675	790.209473	754.692688	38.874607
248.529602	735.894104	787.014404	752.612244	32.703526
248.903870	743.621643	786.865906	742.358398	-2.921184
249.278122	741.912598	788.872070	748.228333	13.449331
249.652344	741.615479	785.454102	742.209900	1.355931
250.026550	736.414307	783.076416	753.801086	37.261024
250.400711	739.832214	782.779114	754.767090	34.775211
250.774857	736.785828	791.175354	764.872253	51.639400
251.148987	735.299805	790.655273	763.237549	50.469707
251.523071	726.234863	790.432312	769.033203	66.666733
251.897125	729.727051	789.169189	772.971191	72.749977
252.271164	725.789063	794.890442	772.525391	67.634438
252.645187	724.302917	791.546875	769.999084	67.955795
253.019165	716.724060	792.884338	763.088928	60.878017
253.393112	730.544373	790.580994	766.655518	60.148529
253.767044	730.024231	787.385925	764.872253	60.751381
254.140930	736.191406	793.181458	762.048645	45.371494
254.514801	732.253357	792.141296	757.664795	42.431644
254.888657	737.751709	795.187744	747.633972	17.205685
255.262466	738.643372	783.373535	744.959045	14.119496
255.636276	739.237793	786.791504	748.971436	20.468735
256.010010	742.135559	784.636719	754.692688	29.545380
256.383759	742.209900	788.723450	760.934143	40.255459
256.757446	738.569031	786.568665	756.253113	36.842117
257.131134	738.643372	790.283752	758.259277	37.985596
257.504791	736.934326	786.419983	756.996155	40.540695
257.878418	737.603088	781.664612	752.983887	34.907551
258.252014	734.853943	781.441711	758.556580	50.877380
258.625580	737.083008	797.714050	760.339783	38.357868
258.999115	735.596924	813.540527	764.426453	36.987679
259.372650	737.157288	825.057434	761.157043	27.303431
259.746124	738.346191	829.738464	761.082825	24.878069
260.119598	735.819824	829.441345	761.454346	27.381014
260.493042	732.179016	832.264832	751.051941	18.856743
260.866425	733.813660	831.818909	750.754700	17.285851
261.239838	739.832214	826.023376	748.302673	9.827526
261.613159	740.723816	823.051270	759.448181	22.743769
261.986511	732.922058	813.763428	758.779480	31.985384
262.359802	728.389587	815.769592	767.992920	45.323105
262.733063	730.990173	808.710754	766.729736	45.984684
263.106293	734.185242	810.271179	762.717468	37.500000
263.479523	742.061279	811.311462	761.454285	28.004267
263.852692	741.392578	810.494141	761.454285	29.032204
264.225861	743.472961	809.156738	763.088928	29.864248
264.598969	741.392578	806.778992	758.184998	25.681818
264.972076	738.271790	816.289734	754.246887	20.476183
265.345154	736.785828	822.828308	758.036377	24.697741
265.718201	726.680603	829.069763	760.636902	33.163960
266.091217	724.525696	834.122314	766.952637	38.711906
266.464203	723.634094	840.512390	765.763855	36.045837
266.837158	725.417480	839.026306	758.407898	29.038605
267.210114	733.442200	830.778748	751.200500	18.244226
267.583038	735.225403	836.351379	748.674316	13.299168
267.955902	741.169739	836.277161	758.036438	17.734367
268.328766	732.104797	852.995300	758.705078	22.003614
268.701569	733.442200	844.598938	761.082825	24.866352
269.074371	723.039734	849.354309	753.949707	24.470631
269.447144	722.593933	843.335876	759.671082	30.707762
269.819885	718.358643	850.766113	750.680420	24.410841
270.192596	728.612488	855.001282	753.801086	19.929455
270.565277	732.327637	855.595764	749.714539	14.104945
270.937927	734.928223	859.162292	754.469788	15.729634
271.310577	732.996338	869.862000	753.206726	14.766588
271.683136	733.070618	884.945374	749.565918	10.861120
272.055725	731.064453	891.038269	752.389343	13.330237
272.428284	730.544373	897.354004	751.794922	12.739402
272.800812	733.070618	895.496399	755.435791	13.769472
273.173279	735.076843	892.821533	758.185059	14.649124
273.545776	735.448303	892.152771	750.606140	9.672881
273.918152	737.603088	895.422058	753.801086	10.263658
274.290558	729.355469	897.725403	756.847473	16.328333
274.662964	733.442139	894.307556	764.797913	19.491930
275.035278	728.538147	892.821472	764.575012	21.935802
275.407593	734.928223	893.936035	768.141541	20.887854
275.779907	731.584656	900.697571	780.104248	28.690649
276.152161	734.333801	902.332275	781.738953	28.217607
276.524384	738.049011	909.613953	771.410828	19.445591
276.896606	736.562927	908.573730	763.386169	15.593928
277.268799	737.008728	914.815125	764.797852	15.628866
277.640930	739.163513	923.954407	769.701843	16.525885
278.013031	744.810486	931.830383	768.215820	12.514890
278.385162	733.888000	934.059509	768.438721	17.260559
278.757233	732.104736	928.338196	765.466614	17.001116
279.129272	732.030334	931.607483	772.971191	20.513800
279.501282	747.485352	939.334961	766.209717	9.759918
279.873230	741.541199	946.913818	766.729797	12.264828
280.245178	744.216003	955.607239	761.008484	7.943792
280.617126	736.265625	966.232605	760.042480	10.339248
280.988983	741.764099	972.919739	765.392334	10.221786
281.360870	735.448303	976.634949	753.652527	7.547774
281.732697	737.751770	986.814453	756.104492	7.368716
282.104492	730.321472	1002.418030	752.092102	8.001068
282.476288	727.349304	1026.640625	765.020813	12.586904
282.848053	730.544373	1021.513733	767.844421	12.819236
283.219757	733.739441	1025.749023	769.404724	12.213737
283.591461	735.225403	1016.907043	768.958801	11.975718
283.963135	727.795105	1020.473450	769.553284	14.267601
284.334747	730.395691	1025.451782	767.101257	12.440200
284.706360	732.922058	1037.265991	760.042480	8.911110
285.077942	739.832214	1052.943848	754.618469	4.722359
285.449524	740.203674	1066.244141	755.138611	4.580700
285.821014	734.928223	1066.912720	761.082764	7.878242
286.192535	730.395752	1085.414185	767.992920	10.590201
286.563995	733.888000	1098.119995	766.952637	9.077906
286.935425	738.271912	1108.893677	766.804016	7.698443
287.306824	738.049011	1107.556274	759.002258	5.670591
287.678223	731.510254	1101.463501	753.726807	6.005232
288.049561	734.408020	1097.896973	750.903320	4.538047
288.420898	737.974609	1089.277832	749.491638	3.278373
288.792145	743.324402	1090.986694	760.042480	4.808712
289.163452	741.838379	1100.274780	758.779358	4.726356
289.534668	732.773438	1114.020630	765.838074	8.672755
289.905914	724.748718	1122.565552	756.847473	8.068727
290.277039	726.234802	1140.769653	763.088867	8.890462
290.648193	736.414246	1162.911987	767.918640	7.386767
291.019318	742.432800	1188.769165	772.599670	6.758775
291.390381	740.575195	1194.193237	770.370605	6.568392
291.761475	737.083008	1190.626831	766.581116	6.503916
292.132507	737.974609	1181.116089	761.528625	5.315236
292.503510	747.113953	1177.995239	760.116882	3.017752
292.874481	755.881653	1177.623779	767.324219	2.713166
293.245422	751.720703	1180.595947	772.822571	4.920281
293.616364	746.890930	1186.020020	775.571777	6.531302
293.987213	731.287415	1205.412964	769.404602	8.039472
294.358093	729.281250	1225.994751	763.609070	6.910990
294.728943	721.628113	1255.418823	760.414063	7.266134
295.099731	726.829285	1276.595093	760.562683	6.135958
295.470490	727.795166	1295.319458	761.379944	5.917769
295.841248	725.491760	1309.213867	762.123047	6.275467
296.211975	727.943665	1327.046509	758.259277	5.060168
296.582642	732.699036	1343.095947	762.420227	4.869158
296.953308	739.386414	1367.541626	762.940369	3.749703
297.323883	740.946716	1380.172974	753.949707	2.034177
297.694519	740.946777	1403.355469	748.748535	1.177786
298.065063	740.872375	1406.624634	747.708252	1.026790
298.435608	738.569031	1402.612305	756.476013	2.696659
298.806122	737.454529	1386.488647	757.664856	3.113908
299.176575	739.832214	1368.210327	760.414063	3.275392
299.547028	742.135559	1352.309448	765.169434	3.774969
299.917450	738.494812	1329.498657	772.302429	5.720372
300.287872	734.556702	1321.250977	768.067200	5.711748
300.658234	735.076843	1318.947632	764.277832	5.001276
301.028564	735.745605	1320.433716	765.095215	5.019703
301.398865	733.293457	1325.411987	764.723633	5.308088
301.769135	724.897278	1330.687500	767.027039	6.954513
302.139374	727.720764	1340.049683	762.048767	5.606138
302.509583	723.857117	1338.860718	770.370667	7.563135
302.879791	727.497986	1339.157837	767.770020	6.584057
303.249939	730.544434	1340.569702	765.318054	5.700357
303.620087	737.528809	1345.473633	758.482239	3.446601
303.990173	736.488586	1348.965942	756.698914	3.299767
304.360260	739.163513	1348.743042	764.797913	4.205259
304.730286	740.278015	1347.034058	762.866028	3.722750
305.100281	740.129395	1352.978271	760.191101	3.273516
305.470276	736.711426	1358.476685	758.927979	3.573142
305.840179	735.894226	1374.526001	761.528564	4.013947
306.210144	736.785828	1374.897461	768.735901	5.006972
306.579987	733.813660	1385.002808	768.884521	5.385664
306.949890	726.680664	1386.340210	771.708008	6.825846
307.319702	728.835388	1408.630981	772.153870	6.372281
307.689484	724.451477	1429.287109	778.543945	7.674480
308.059265	727.720764	1452.989624	784.413818	7.816833
308.429016	722.816833	1472.531250	780.475769	7.690786
308.798737	724.005676	1492.667358	777.132141	6.911554
309.168396	725.194580	1515.106812	773.565613	6.123596
309.538055	732.550537	1537.174683	780.698730	5.983936
309.907684	741.020996	1551.812378	774.011414	4.068916
310.277313	738.346130	1572.319946	766.358215	3.358869
310.646851	733.293518	1577.744141	760.116760	3.176413
311.016388	725.120300	1592.827515	756.996094	3.673566
311.385895	727.943848	1586.734741	759.150879	3.633833
311.755371	726.903503	1589.706665	762.123047	4.081991
312.124817	727.423645	1594.239258	765.095032	4.345952
312.494232	728.463867	1603.006836	767.992920	4.519967
312.863617	733.219238	1612.146118	761.454285	3.212445
313.232971	732.847656	1600.480591	771.485168	4.453209
313.602295	735.968445	1596.245239	765.540955	3.437557
313.971619	730.544434	1585.471558	761.677185	3.641568
314.340820	732.996399	1591.415649	749.045715	1.869636
314.710083	731.956116	1610.585815	752.909424	2.384771
315.079285	735.596924	1629.681641	766.061035	3.407296
315.448486	731.956055	1658.065308	768.587402	3.955402
315.817596	727.869446	1650.857910	773.268372	4.918688
316.186707	724.600098	1646.696899	766.878418	4.585020
316.555786	728.761047	1625.223267	762.345886	3.746375
316.924866	732.253235	1618.090454	760.785583	3.220947
317.293884	738.123230	1610.734375	765.095032	3.090930
317.662872	743.324402	1595.651001	774.457275	3.652693
318.031830	742.581360	1596.096680	768.141541	2.994695
318.400757	736.042786	1605.830444	764.203430	3.237646
318.769684	729.578430	1622.028320	764.203430	3.879770
319.138550	723.411316	1638.151978	760.488342	4.053283
319.507416	726.309082	1641.718628	758.630798	3.530848
319.876190	721.479492	1655.984741	754.395569	3.522300
320.244995	734.259521	1660.591431	769.701904	3.826100
320.613770	737.083069	1657.916626	771.708191	3.760193
320.982483	739.757874	1635.402954	775.126038	3.948904
321.351166	726.977844	1621.062500	765.466614	4.304824
321.719818	723.559875	1612.740601	767.249939	4.913519
322.088440	726.234863	1630.944702	764.575012	4.237839
322.457062	732.550537	1642.981812	764.872253	3.550154
322.825623	734.110901	1666.907227	768.290100	3.664165
323.194183	737.454529	1688.975098	770.965027	3.521784
323.562653	743.324402	1725.457642	773.194092	3.041307
323.931183	737.751709	1772.194214	767.770020	2.901883
324.299591	733.516418	1809.419922	761.825745	2.631214
324.668060	726.606384	1850.434937	759.819580	2.955361
325.036407	733.293640	1879.858765	767.398499	2.974524
