Jaz Data File
++++++++++++++++++++++++++++++++++++
Date: Fri Jun 04 16:18:13 2021
User: jaz
Dark Spectrum Present: Yes
Reference Spectrum Present: Yes
Processed Spectrum Present: Yes
Spectrometers: JAZA3586
Integration Time (usec): 40000 (JAZA3586)
Spectra Averaged: 10 (JAZA3586)
Boxcar Smoothing: 1 (JAZA3586)
Correct for Electrical Dark: No (JAZA3586)
Strobe/Lamp Enabled: Yes (JAZA3586)
Correct for Detector Non-linearity: No (JAZA3586)
Correct for Stray Light: No (JAZA3586)
Number of Pixels in Processed Spectrum: 2048
>>>>>Begin Processed Spectral Data<<<<<
W	D	R	S	P
191.335022	0.000000	0.000000	0.000000	0.000000
191.713211	302.709259	311.922791	302.114868	-6.451282
192.091385	614.260559	623.697021	613.889099	-3.936432
192.469528	925.737549	936.511475	920.833679	-45.516090
192.847641	941.043945	939.334961	929.898621	652.160706
193.225739	943.644531	952.486572	931.904724	-132.772598
193.603790	944.016113	964.152100	947.136780	15.497957
193.981842	948.622864	970.021973	953.303894	21.874884
194.359863	958.876648	966.455505	957.613464	-16.667204
194.737854	973.662903	971.953857	959.916931	804.307007
195.115829	975.297607	974.554504	969.501953	779.926086
195.493774	979.532715	978.195313	973.960022	416.680359
195.871704	981.613220	970.690735	979.161316	22.448227
196.249603	985.922791	974.554504	976.634949	81.699577
196.627457	980.721680	972.399658	974.034424	80.356148
197.005310	977.675293	975.000305	972.622620	188.885849
197.383133	973.142761	974.108704	974.480225	138.462021
197.760910	981.613220	970.913757	986.665833	-47.223045
198.138687	975.669006	967.867249	985.551331	-126.667915
198.516449	972.771179	966.158203	979.829895	-106.740379
198.894180	962.220215	971.582336	967.124207	52.381199
199.271866	966.083984	966.381104	960.139832	-2000.595703
199.649536	964.152161	962.591736	963.854980	19.044825
200.027191	959.545410	962.071594	966.232666	264.717682
200.404816	956.053040	967.272888	970.765137	131.125626
200.782410	950.777649	981.687683	975.520447	80.047783
201.159988	955.755920	997.811279	982.207703	62.897530
201.537537	953.303955	1012.523193	986.145752	55.457985
201.915070	964.523621	1007.321960	984.213867	46.007034
202.292557	958.282227	998.182678	986.368652	70.391251
202.670029	960.659912	993.501648	987.185974	80.769363
203.047485	948.771484	991.049622	993.724548	106.326973
203.424911	953.303955	989.563660	993.204407	110.040749
203.802292	955.904541	989.340637	992.758728	110.222755
204.179688	961.254333	992.015625	992.238586	100.724815
204.557037	959.768250	994.764832	984.585388	70.913033
204.934357	958.653748	996.176575	990.752441	85.544441
205.311661	961.848694	999.074402	983.619446	58.483112
205.688934	962.294617	996.993958	988.820618	76.445259
206.066177	960.362732	998.405701	982.133301	57.226261
206.443390	955.681641	1001.600647	980.795898	54.692513
206.820587	951.743591	1001.600647	979.830017	56.333904
207.197769	950.331848	991.272644	978.343933	68.420959
207.574921	950.480286	994.319031	979.458496	66.101822
207.952042	943.793152	992.387024	978.864075	72.171494
208.329147	939.112061	993.353027	973.885742	64.109627
208.706223	954.492676	992.535706	986.219971	83.398445
209.083267	968.535889	993.724609	988.151855	77.875992
209.460297	972.102356	994.021790	993.650208	98.304779
209.837280	954.715576	986.740051	983.693665	90.487320
210.214264	943.644531	987.334473	982.207581	88.265282
210.591217	945.204895	989.563660	980.052795	78.559219
210.968124	945.873596	985.402649	979.384094	84.774353
211.345016	956.870422	987.260254	979.755676	75.305626
211.721893	954.938660	991.495605	979.904297	68.292458
212.098724	953.824036	997.439758	978.418274	56.388470
212.475555	952.560852	995.210632	975.223145	53.135777
212.852356	950.480408	987.928955	981.241699	82.142815
213.229126	952.858093	983.990906	972.102539	61.814030
213.605865	942.678528	983.247864	970.765137	69.231125
213.982590	943.124451	986.219971	965.117981	51.034378
214.359283	946.319519	983.247864	976.634949	82.092575
214.735931	942.381409	982.727783	975.966125	83.240974
215.112579	937.700378	985.105469	973.365540	75.234879
215.489197	934.876770	988.895020	967.644348	60.660198
215.865799	950.108887	995.507813	971.582458	47.299736
216.242355	955.755859	994.913391	968.238770	31.878695
216.618896	955.012878	990.455261	977.526611	63.522064
216.995407	939.557922	978.715393	978.492493	99.430756
217.371902	937.105957	977.898132	980.944519	107.468063
217.748367	939.409363	982.579163	972.251160	76.075859
218.124802	948.622864	984.511047	970.319153	60.455246
218.501236	951.966492	989.637939	971.359375	51.478996
218.877609	951.297852	990.009460	974.034363	58.733055
219.253983	951.817932	995.804993	984.511047	74.324394
219.630295	947.285339	992.387146	987.408875	88.962143
220.006592	949.068604	994.839111	987.557434	84.090897
220.382889	951.743591	992.164246	974.628845	56.617722
220.759140	955.087158	987.706116	976.560730	65.831573
221.135391	945.427795	989.712219	976.560730	70.302223
221.511581	942.158447	992.015625	986.517151	88.971550
221.887772	938.889160	997.216797	989.192078	86.241997
222.263931	945.873718	998.108459	989.637939	83.783745
222.640060	939.780823	1005.538757	986.665833	71.299393
223.016159	939.037842	1010.888489	986.071472	65.460274
223.392212	940.895447	1009.328125	988.894836	70.141037
223.768265	952.858093	1001.303467	988.746277	74.079689
224.144302	959.916809	992.758728	982.356262	68.325645
224.520294	958.802246	991.569824	980.795898	67.120163
224.896286	952.635193	994.467590	984.213806	75.488411
225.272217	952.040710	993.724609	990.381042	91.978760
225.648148	951.372009	997.439758	990.678223	85.322624
226.024048	950.926208	997.291199	988.672058	81.410240
226.399902	953.824036	999.817383	984.808289	67.366814
226.775772	953.303894	991.123962	982.802063	77.996078
227.151581	948.399902	991.346863	975.817627	63.840897
227.527374	942.158447	984.213806	976.486328	81.625465
227.903137	933.019226	987.185852	978.046692	83.127693
228.278870	942.530029	990.529541	977.155090	72.136276
228.654572	943.718811	999.074402	975.371826	57.181244
229.030273	953.972595	997.737000	974.851746	47.708065
229.405930	950.406067	990.232422	977.600891	68.283485
229.781555	946.542419	990.604004	983.693665	84.316635
230.157181	940.598145	997.142578	979.235535	68.331024
230.532761	937.328857	994.541992	976.783508	68.960831
230.908325	939.483643	988.895020	971.285156	64.360710
231.283859	943.124451	983.545166	971.953918	71.323494
231.659332	947.582581	991.495422	971.508118	54.484146
232.034821	944.387512	996.102234	971.805359	53.017490
232.410263	942.307129	995.656433	981.836182	74.094788
232.785690	948.028503	986.517151	989.860840	108.687469
233.161087	957.464844	984.213806	988.226135	114.999947
233.536469	955.978821	984.065247	978.938416	81.746231
233.911804	957.019104	987.111633	969.947754	42.962990
234.287140	958.579407	999.148682	974.331604	38.827900
234.662430	965.861084	1005.687256	977.155090	28.358252
235.037704	955.384338	1002.566650	977.452332	46.771751
235.412933	951.074768	990.901123	978.418213	68.656662
235.788162	940.449524	984.956848	969.576172	65.442368
236.163345	944.090393	994.096130	974.034424	59.881191
236.538513	943.495911	1003.978333	971.582458	46.437538
236.913635	949.737488	1009.551086	977.080811	45.714226
237.288742	943.718933	1006.281738	973.960144	48.337364
237.663834	935.396973	1004.869934	974.108704	55.722012
238.038879	934.728271	1003.532532	978.195313	63.174927
238.413910	935.025452	1013.266174	980.573059	58.214706
238.788910	941.861328	1008.956543	974.480164	48.615742
239.163879	935.248352	1011.185730	968.833191	44.227020
239.538834	939.260681	999.445862	964.300598	41.604790
239.913757	935.917053	1003.978333	968.312988	47.598186
240.288651	949.663086	1002.640930	971.805359	41.795345
240.663528	954.864258	1010.442688	980.275818	45.721981
241.038361	959.991150	1009.551086	983.173523	46.776440
241.413177	955.161438	1004.795715	980.721497	51.496788
241.787979	953.452454	1000.709167	981.613281	59.591167
242.162735	954.789856	996.845398	976.783508	52.296680
242.537476	952.932373	1002.417969	979.012695	52.702854
242.912170	953.601074	1010.888489	979.607117	45.395733
243.286865	954.195557	1017.352783	977.898132	37.529476
243.661514	955.755859	1018.393066	973.737122	28.706999
244.036148	951.594910	1016.758484	970.913635	29.646509
244.410751	952.560852	1018.838928	976.263428	35.762318
244.785339	947.805481	1021.885315	980.944519	44.734222
245.159882	951.669250	1014.529297	976.337708	39.243462
245.534378	944.684875	1009.179504	977.377930	50.691128
245.908890	950.183167	1006.058838	978.269592	50.265930
246.283356	946.913879	1007.842102	978.269592	51.463364
246.657791	945.650696	1010.591309	977.823914	49.542522
247.032196	938.740540	1018.170105	975.371826	46.117950
247.406586	931.013123	1030.132935	977.823792	47.226349
247.780960	936.139954	1043.581665	976.114807	37.206085
248.155289	939.929382	1048.634277	981.538879	38.277481
248.529602	944.090332	1046.405151	986.294250	41.249077
248.903870	940.895325	1037.711792	989.192139	49.884918
249.278122	938.146179	1027.755249	990.306641	58.208908
249.652344	946.096497	1018.467468	987.260254	56.878822
250.026550	953.675476	1008.882385	988.894958	63.795425
250.400711	960.139709	1010.591309	999.074402	77.172363
250.774857	949.068665	1017.947266	1000.560486	74.757355
251.148987	933.465088	1023.371399	995.953613	69.504051
251.523071	925.737610	1020.919434	979.086914	56.049885
251.897125	937.626038	1020.845032	981.984680	53.303509
252.271164	945.650696	1019.284668	977.303711	42.986973
252.645187	950.703308	1023.222839	982.281982	43.545063
253.019165	939.632263	1026.120605	978.269531	44.673382
253.393112	942.678650	1034.814087	987.260254	48.387032
253.767044	951.223450	1036.968750	993.724609	49.566750
254.140930	957.093445	1030.950317	994.913391	51.207077
254.514801	951.297791	1028.646851	996.919617	58.981747
254.888657	942.158508	1032.510620	988.077637	50.822418
255.262466	941.564148	1041.129761	986.963074	45.596992
255.636276	942.009827	1040.832520	981.687561	40.150429
256.010010	945.204895	1040.758179	982.504883	39.035801
256.383759	944.238953	1037.043091	981.390320	40.032017
256.757446	952.337891	1043.730347	978.715393	28.861794
257.131134	948.325623	1045.142090	981.241699	33.998428
257.504791	948.399902	1056.436035	976.263428	25.790932
257.878418	945.130615	1054.652832	980.944519	32.700127
258.252014	952.040710	1057.253418	978.418213	25.070642
258.625580	957.687805	1056.956177	984.362488	26.871281
258.999115	954.344177	1066.244141	984.065247	26.560392
259.372650	953.303894	1078.132446	985.031067	25.416599
259.746124	949.514465	1091.729858	976.783508	19.174467
260.119598	957.093323	1097.896973	980.350098	16.517168
260.493042	952.115051	1107.407715	976.337830	15.598147
260.866425	953.006653	1109.711182	981.167419	17.970613
261.239838	949.811707	1114.020752	976.634949	16.334814
261.613159	944.610535	1108.299438	979.755676	21.470694
261.986511	936.808777	1103.023926	983.173645	27.894489
262.359802	935.248352	1095.593628	982.504883	29.471733
262.733063	943.867493	1088.311890	978.938416	24.279877
263.106293	951.520691	1089.203613	974.777344	16.891459
263.479523	948.919983	1095.370605	974.331543	17.351624
263.852692	940.523743	1094.776245	981.241699	26.396950
264.225861	938.220398	1090.466797	989.266418	33.528557
264.598969	947.731140	1081.773438	994.764832	35.088696
264.972076	949.811707	1083.630981	999.966064	37.479172
265.345154	948.771484	1081.104614	996.696716	36.215595
265.718201	944.164734	1089.277954	992.535706	33.333263
266.091217	949.143005	1100.348999	986.814453	24.913992
266.464203	948.399963	1106.739136	986.294373	23.932428
266.837158	945.502136	1116.695557	991.792725	27.039934
267.210114	938.666260	1120.113525	992.981628	29.934521
267.583038	943.793152	1134.676758	989.266418	23.822510
267.955902	948.622803	1136.757324	982.504883	18.009497
268.328766	956.647461	1131.779053	976.412048	11.285563
268.701569	952.263611	1130.292969	984.065247	17.863142
269.074371	947.879700	1143.964722	983.990967	18.416128
269.447144	949.440186	1153.698364	991.124023	20.407427
269.819885	950.554749	1159.494019	981.167480	14.651498
270.192596	948.177063	1156.893433	986.814453	18.511911
270.565277	940.449524	1168.410278	979.161316	16.981779
270.937927	942.307129	1185.128418	996.845398	22.460251
271.310577	942.604309	1205.561646	997.737000	20.966402
271.683136	948.548523	1221.165161	1007.693542	21.695309
272.055725	949.960266	1232.161987	995.804993	16.245375
272.428284	952.263672	1236.917480	993.501709	14.487084
272.800812	951.817871	1244.273315	989.117859	12.754075
273.173279	947.582703	1239.740845	992.015625	15.208518
273.545776	953.675476	1235.802856	991.346924	13.352638
273.918152	952.189453	1229.338501	992.164307	14.423594
274.290558	944.684814	1225.028931	993.798889	17.519211
274.662964	938.666321	1226.812134	994.319031	19.314079
275.035278	939.112122	1221.759644	990.306641	18.112495
275.407593	940.821045	1228.149658	979.309875	13.395405
275.779907	948.697205	1232.607910	983.693665	12.326572
276.152161	947.434021	1244.942017	989.860840	14.260733
276.524384	959.248108	1255.270142	998.257019	13.177705
276.896606	948.177063	1259.431152	991.421143	13.893497
277.268799	948.994324	1266.861450	994.021729	14.165481
277.640930	946.690918	1262.254517	996.919617	15.917140
278.013031	942.827148	1269.313354	1002.269348	18.206650
278.385162	942.752869	1267.752930	994.839111	16.026533
278.757233	945.799316	1281.870483	988.894958	12.823368
279.129272	952.040771	1280.607300	988.894958	11.216659
279.501282	953.452454	1287.889038	986.963074	10.020022
279.873230	943.644531	1300.297729	990.529602	13.145844
280.245178	944.981995	1317.164429	992.981506	12.896770
280.617126	941.489746	1335.071289	999.445862	14.725313
280.988983	945.576416	1340.049683	996.622375	12.940284
281.360870	949.365906	1364.792358	988.746338	9.479520
281.732697	946.616699	1386.340210	987.037354	9.192288
282.104492	947.582703	1414.203735	992.387207	9.601904
282.476288	945.947937	1431.070435	994.690613	10.047499
282.848053	946.542297	1431.962036	1002.863831	11.602646
283.219757	947.582520	1432.853638	1003.309570	11.483694
283.591461	944.238953	1426.835083	1011.185730	13.872216
283.963135	951.372009	1433.596680	998.331299	9.738052
284.334747	951.669189	1433.893921	991.495422	8.258853
284.706360	948.028381	1443.553223	987.334656	7.932251
285.077942	947.359680	1460.717163	986.071472	7.540904
285.449524	943.273132	1486.203125	987.780457	8.197618
285.821014	947.434021	1500.171875	982.059082	6.264283
286.192535	944.238953	1528.555664	989.043518	7.667856
286.563995	944.907715	1542.004395	981.316101	6.097569
286.935425	949.960266	1561.694702	986.145752	5.915228
287.306824	950.703308	1560.654297	985.179871	5.652349
287.678223	949.365906	1551.515015	1002.566650	8.835145
288.049561	940.523865	1535.465820	1001.080566	10.178590
288.420898	934.059570	1525.880737	997.142517	10.659123
288.792145	936.214294	1527.812500	990.826843	9.231359
289.163452	940.077942	1538.512207	994.764832	9.138329
289.534668	941.861267	1550.549194	1001.229187	9.753425
289.905914	935.471252	1582.127808	1004.721436	10.708959
290.277039	933.910889	1609.248413	998.554382	9.572027
290.648193	939.780823	1636.294434	999.371582	8.555577
291.019318	945.873718	1641.569946	994.170410	6.942210
291.390381	950.108887	1657.990845	993.798889	6.171933
291.761475	951.743591	1652.864136	987.706055	5.129284
292.132507	954.418457	1653.458496	988.226257	4.836318
292.503510	957.390564	1632.876587	988.449158	4.597962
292.874481	956.721863	1629.161499	1000.560547	6.519349
293.245422	957.687805	1626.560913	998.554382	6.109766
293.616364	952.189453	1642.907593	1000.411865	6.981489
293.987213	954.567078	1657.025024	990.158020	5.066629
294.358093	941.935608	1692.690308	997.811218	7.442592
294.728943	944.684814	1731.104858	1003.309570	7.454637
295.099731	941.043945	1775.017700	1000.931946	7.181041
295.470490	947.433899	1808.602539	990.752441	5.030204
295.841248	939.780762	1822.497070	988.969238	5.572399
296.211975	939.855164	1834.905640	996.325195	6.309145
296.582642	943.198730	1861.654785	1001.080566	6.302080
296.953308	946.839600	1899.697754	1009.551086	6.581409
297.323883	950.703369	1949.629272	1005.464417	5.481993
297.694519	953.601135	1959.585571	1020.027771	6.603148
298.065063	954.195557	1963.598022	1006.578918	5.189542
298.435608	946.988098	1941.455688	1011.260010	6.462947
298.806122	939.483582	1913.815063	1001.600586	6.375346
299.176575	938.369080	1872.205688	1005.390076	7.176951
299.547028	936.288574	1846.274048	1002.938049	7.324235
299.917450	940.821045	1821.456909	993.575928	5.990544
300.287872	943.495911	1814.100952	990.083740	5.351202
300.658234	949.440186	1806.819214	981.910461	3.787155
301.028564	955.904541	1813.432129	979.755676	2.781384
301.398865	950.703308	1820.639648	981.761902	3.570215
301.769135	945.502136	1812.466309	981.836182	4.190951
302.139374	942.901550	1813.580933	984.659668	4.796039
302.509583	942.307129	1814.249512	980.870178	4.422660
302.879791	951.743469	1815.661255	988.300537	4.231545
303.249939	952.189392	1817.147339	988.226257	4.166314
303.620087	951.817871	1814.843750	990.306641	4.459747
303.990173	943.570313	1811.500366	989.786438	5.324868
304.360260	938.517761	1808.676758	1002.046570	7.300828
304.730286	946.022278	1810.608765	1002.269348	6.505661
305.100281	949.960266	1819.599121	1003.235352	6.126116
305.470276	947.433899	1824.503296	1000.634705	6.065746
305.840179	944.981934	1834.682617	1007.470520	7.023551
306.210144	935.768372	1849.171753	1007.544922	7.858144
306.579987	937.774597	1861.060181	1003.086731	7.073882
306.949890	943.347351	1866.855835	1001.749329	6.323925
307.319702	951.149231	1870.125122	1009.253906	6.322764
307.689484	954.864441	1895.759766	1013.563477	6.238636
308.059265	950.851990	1914.261108	1012.151672	6.362788
308.429016	948.622803	1952.898438	1002.863831	5.401010
308.798737	941.712646	1978.087036	997.216797	5.355608
309.168396	942.009949	2013.306519	998.405701	5.264252
309.538055	936.808777	2036.563477	1004.349915	6.141473
309.907684	941.638367	2059.820068	1008.065002	5.940594
310.277313	935.619812	2080.922119	1002.120850	5.806418
310.646851	946.765320	2104.996094	996.250916	4.272516
311.016388	944.610535	2121.194092	997.513977	4.496361
311.385895	946.988220	2124.834961	1000.263184	4.523081
311.755371	943.495911	2118.816406	1000.411804	4.842585
312.124817	941.638367	2125.503418	1001.674988	5.071239
312.494232	946.839539	2122.085449	1000.931946	4.602646
312.863617	943.198730	2120.896729	1001.080566	4.914828
313.232971	947.359680	2105.293213	1004.275574	4.915298
313.602295	947.136719	2111.757568	1010.888489	5.474037
313.971619	957.167664	2120.822510	1014.529297	4.929437
314.340820	957.241943	2122.383057	1013.934875	4.865757
314.710083	951.297791	2133.454346	1011.111389	5.059702
315.079285	946.319397	2145.937012	1015.643860	5.778880
315.448486	945.576416	2182.270752	1012.820374	5.437395
315.817596	948.474182	2189.180908	1018.393066	5.635407
316.186707	943.941711	2180.710205	1009.773987	5.322926
316.555786	950.257507	2142.741943	1013.414856	5.296283
316.924866	949.960266	2113.243896	1013.340515	5.448391
317.293884	952.337952	2093.702148	1022.554016	6.151942
317.662872	943.198730	2086.494873	1014.677917	6.252028
318.031830	938.517578	2089.095459	1008.585205	6.089777
318.400757	938.889160	2103.064453	1004.275574	5.616544
318.769684	944.016113	2119.039307	1011.334290	5.729094
319.138550	945.799316	2142.593018	1014.900879	5.773891
319.507416	944.833435	2152.921143	1020.993652	6.304196
319.876190	942.901550	2158.419922	1023.222717	6.607977
320.244995	947.136780	2165.032959	1034.516724	7.174663
320.613770	954.567078	2154.853271	1034.516724	6.660882
320.982483	956.721863	2146.754150	1037.711792	6.805692
321.351166	954.418457	2119.410889	1033.476685	6.786158
321.719818	949.068604	2111.237549	1041.129761	7.921495
322.088440	949.142883	2119.262451	1045.513672	8.235977
322.457062	948.102722	2138.729736	1053.538208	8.855459
322.825623	949.068665	2164.884033	1054.504272	8.672008
323.194183	948.474304	2192.450439	1058.516602	8.846014
323.562653	948.399963	2229.676025	1061.414429	8.820461
