Jaz Data File
++++++++++++++++++++++++++++++++++++
Date: Fri Jun 04 16:09:35 2021
User: jaz
Dark Spectrum Present: Yes
Reference Spectrum Present: Yes
Processed Spectrum Present: Yes
Spectrometers: JAZA3586
Integration Time (usec): 33500 (JAZA3586)
Spectra Averaged: 10 (JAZA3586)
Boxcar Smoothing: 1 (JAZA3586)
Correct for Electrical Dark: No (JAZA3586)
Strobe/Lamp Enabled: Yes (JAZA3586)
Correct for Detector Non-linearity: No (JAZA3586)
Correct for Stray Light: No (JAZA3586)
Number of Pixels in Processed Spectrum: 2048
>>>>>Begin Processed Spectral Data<<<<<
W	D	R	S	P
191.335022	0.000000	0.000000	0.000000	0.000000
191.713211	343.427155	341.792572	338.894684	277.286133
192.091385	684.030823	687.671692	683.882263	-4.080333
192.469528	1030.727417	1035.779907	1025.972046	-94.119354
192.847641	1039.866577	1050.417603	1036.225708	-34.507256
193.225739	1060.745605	1062.231689	1039.123657	-1454.961426
193.603790	1066.318359	1074.194458	1048.634399	-224.526901
193.981842	1072.485474	1075.606201	1057.179077	-490.475250
194.359863	1070.479370	1071.445313	1070.256470	-23.075951
194.737854	1075.234619	1068.770264	1076.795044	-24.138908
195.115829	1072.708374	1068.621704	1069.736206	72.728355
195.493774	1072.931274	1069.661987	1073.228516	-9.091928
195.871704	1075.457642	1070.850952	1072.485474	64.518524
196.249603	1074.120117	1066.764160	1077.017944	-39.394291
196.627457	1074.788940	1071.370972	1068.918945	171.739288
197.005310	1076.497803	1067.953003	1065.575195	127.827538
197.383133	1086.826050	1072.559814	1061.860229	174.999359
197.760910	1090.986816	1074.343140	1064.535156	158.929184
198.138687	1086.008545	1084.745483	1067.209961	1488.334839
198.516449	1084.745239	1086.751587	1073.748657	-548.089539
198.894180	1080.955933	1086.900269	1063.494751	-293.744873
199.271866	1083.779419	1085.191284	1060.151123	-1673.551758
199.649536	1076.051880	1079.024048	1057.327759	-629.981934
200.027191	1073.971558	1076.646484	1066.764160	-269.442810
200.404816	1073.897339	1070.776489	1070.850952	97.614021
200.782410	1070.776489	1086.751465	1070.776489	0.000000
201.159988	1066.541138	1100.126099	1075.531860	26.770084
201.537537	1067.729980	1109.636841	1081.550415	32.978931
201.915070	1074.491577	1104.138306	1083.630859	30.827288
202.292557	1071.668213	1100.126099	1080.212891	30.025694
202.670029	1067.953003	1100.200317	1078.058228	31.336639
203.047485	1059.631226	1104.584229	1080.510132	46.446075
203.424911	1058.665161	1102.801025	1075.903442	39.057308
203.802292	1056.733276	1100.869141	1072.188354	35.017052
204.179688	1056.881836	1098.565674	1080.138672	55.793415
204.557037	1057.550659	1103.766846	1086.751587	63.183334
204.934357	1058.145020	1107.184814	1085.042603	54.848480
205.311661	1058.665161	1103.692505	1076.943604	40.594093
205.688934	1055.247192	1099.085815	1070.330688	34.406864
206.066177	1052.052246	1093.661743	1075.754761	56.964195
206.443390	1047.445435	1095.222046	1071.296631	49.922329
206.820587	1056.361816	1095.073486	1070.627930	36.852230
207.197769	1059.928345	1098.194336	1065.426758	14.368929
207.574921	1066.169800	1103.692505	1073.005493	18.217485
207.952042	1063.420532	1104.584351	1077.166504	33.393333
208.329147	1056.436035	1103.395386	1078.726929	47.468487
208.706223	1063.123413	1103.692627	1086.305786	57.142773
209.083267	1054.578613	1103.246826	1082.070557	56.488499
209.460297	1054.949951	1099.160156	1080.584473	57.983269
209.837280	1043.284424	1088.163330	1073.302856	66.887619
210.214264	1052.720947	1086.082886	1076.052002	69.933151
210.591217	1056.138916	1094.181885	1079.841431	62.304588
210.968124	1055.692993	1100.869263	1074.937378	42.598438
211.345016	1052.572388	1105.178711	1074.194458	41.101658
211.721893	1052.720947	1099.160278	1066.689819	30.079830
212.098724	1050.714844	1098.342896	1068.250244	36.817379
212.475555	1046.182373	1094.404785	1064.757935	38.520599
212.852356	1044.399048	1095.816528	1070.776489	51.300533
213.229126	1048.560059	1094.256226	1070.776489	48.617710
213.605865	1058.367920	1096.559570	1074.343140	41.829090
213.982590	1062.974731	1090.838257	1068.547363	19.999737
214.359283	1061.265747	1091.952759	1064.163574	9.443172
214.735931	1055.544434	1087.346069	1063.569214	25.233860
215.112579	1056.807617	1095.370728	1063.420532	17.148293
215.489197	1064.460815	1086.677246	1060.299927	-18.728880
215.865799	1063.940552	1086.603027	1056.807617	-31.474649
216.242355	1061.339966	1088.906372	1053.761230	-27.492649
216.618896	1057.624878	1097.674194	1061.191406	8.905341
216.995407	1060.522705	1098.045776	1063.866333	8.910859
217.371902	1057.476318	1099.234497	1067.953003	25.088940
217.748367	1058.739502	1094.627686	1064.906616	17.184248
218.124802	1056.287476	1087.940430	1066.318359	31.690197
218.501236	1058.590942	1084.448120	1077.240845	72.126595
218.877609	1050.863403	1099.160156	1077.612427	55.384724
219.253983	1054.504272	1108.225098	1079.172729	45.919727
219.630295	1051.011963	1108.225098	1072.485474	37.532486
220.006592	1052.943848	1099.754517	1073.897095	44.761692
220.382889	1046.405273	1098.342773	1074.714600	54.506523
220.759140	1047.371216	1098.565674	1074.491699	52.975430
221.135391	1049.228638	1093.810303	1078.949829	66.666847
221.511581	1057.550659	1094.330444	1076.720825	52.121475
221.887772	1063.866333	1092.175659	1078.206787	50.656288
222.263931	1068.547485	1092.547241	1068.473145	-0.309757
222.640060	1064.312134	1093.364624	1070.776489	22.250607
223.016159	1062.603149	1092.472900	1064.237915	5.472980
223.392212	1058.888062	1095.073364	1069.141846	28.336876
223.768265	1054.950073	1091.358398	1069.587769	40.204254
224.144302	1045.513550	1091.729858	1068.547485	49.839409
224.520294	1035.854248	1088.460571	1070.479370	65.819313
224.896286	1039.717896	1093.513184	1067.953003	52.486210
225.272217	1047.222412	1099.234497	1071.519653	46.714607
225.648148	1057.104614	1109.785400	1076.126343	36.107525
226.024048	1051.160645	1106.813354	1078.132568	48.464710
226.399902	1049.377319	1105.475830	1083.110840	60.132648
226.775772	1042.095703	1100.274780	1075.160278	56.832417
227.151581	1050.789063	1107.259155	1076.869263	46.184093
227.527374	1047.222534	1105.178711	1070.033447	39.358898
227.903137	1049.971802	1104.435669	1070.999390	38.608326
228.278870	1051.160522	1108.968140	1070.776489	33.933186
228.654572	1059.408203	1119.593384	1075.606079	26.913397
229.030273	1070.925171	1129.772827	1079.915771	15.277755
229.405930	1067.284302	1135.271362	1073.897339	9.726906
229.781555	1060.374146	1136.757324	1066.392578	7.879264
230.157181	1051.606323	1135.122681	1064.386475	15.302573
230.532761	1051.977783	1128.286743	1074.268677	29.211370
230.908325	1051.011841	1122.937012	1080.435913	40.909283
231.283859	1058.665161	1122.639771	1084.002441	39.605213
231.659332	1053.092407	1118.924683	1073.302734	30.699724
232.034821	1049.303101	1119.221802	1072.782715	33.581306
232.410263	1046.999634	1121.673828	1063.271851	21.790951
232.785690	1044.101807	1123.531494	1068.770264	31.056974
233.161087	1055.618774	1121.599487	1066.764160	16.891884
233.536469	1049.451660	1119.964966	1061.637329	17.281376
233.911804	1058.367920	1119.444702	1068.324585	16.301882
234.287140	1041.724243	1118.478882	1065.946777	31.558397
234.662430	1039.940918	1123.159912	1070.553589	36.785679
235.037704	1037.340332	1122.937012	1061.414429	28.125036
235.412933	1047.742798	1133.413696	1064.237915	19.254049
235.788162	1049.971680	1133.562378	1069.364746	23.200029
236.163345	1056.733276	1143.295898	1073.748657	19.656731
236.538513	1059.482544	1138.243286	1077.686646	23.113167
236.913635	1058.070679	1133.562378	1075.903442	23.622152
237.288742	1044.027466	1128.435425	1075.234741	36.971958
237.663834	1037.934814	1130.813110	1081.030273	46.399925
238.038879	1033.550903	1137.426147	1080.584473	45.278900
238.413910	1044.696411	1140.695435	1081.699097	38.544857
238.788910	1045.365112	1139.135010	1074.045898	30.586348
239.163879	1049.971680	1131.556030	1075.680542	31.512003
239.538834	1046.925293	1127.172241	1070.182129	28.981583
239.913757	1055.024292	1130.887329	1069.661987	19.294897
240.288651	1055.024414	1137.054565	1074.417358	23.641239
240.663528	1049.228638	1148.645874	1073.451294	24.364645
241.038361	1043.358765	1150.280396	1074.565918	29.186941
241.413177	1042.615845	1160.459839	1065.501099	19.419958
241.787979	1051.383545	1173.388550	1071.296509	16.321432
242.162735	1051.755005	1184.236816	1077.463867	19.405579
242.537476	1055.470093	1196.793945	1086.454346	21.924292
242.912170	1044.919067	1209.053833	1085.339722	24.626503
243.286865	1045.810791	1223.988647	1077.315063	17.681362
243.661514	1043.210205	1231.270386	1072.039673	15.329916
244.036148	1051.309204	1225.697754	1071.370972	11.504063
244.410751	1054.652710	1216.781372	1075.308960	12.740653
244.785339	1060.819946	1198.725830	1080.287231	14.116356
245.159882	1062.306030	1198.651489	1081.996216	14.441395
245.534378	1054.429932	1202.218018	1084.596802	20.412249
245.908890	1049.303101	1220.050659	1082.070435	19.190514
246.283356	1044.621948	1233.796753	1081.921875	19.717175
246.657791	1052.646606	1258.911011	1077.240845	11.923646
247.032196	1058.813721	1289.969604	1075.680542	7.296730
247.406586	1060.374146	1320.433716	1073.971558	5.228576
247.780960	1057.624878	1352.532349	1079.469849	7.407398
248.155289	1053.835571	1355.207275	1073.971558	6.681446
248.529602	1051.309204	1341.535522	1079.618530	9.754225
248.903870	1047.222534	1314.192261	1074.788940	10.325667
249.278122	1044.398926	1299.257324	1078.132446	13.236181
249.652344	1045.364868	1277.338135	1074.343018	12.492022
250.026550	1043.656128	1260.248413	1079.246948	16.432173
250.400711	1044.101929	1241.672729	1089.723633	23.091320
250.774857	1040.461060	1238.031860	1094.627563	27.416250
251.148987	1043.135864	1232.384888	1093.067383	26.384029
251.523071	1046.033691	1236.768799	1085.414185	20.646694
251.897125	1055.767334	1247.319824	1081.921997	13.654045
252.271164	1064.312134	1262.254639	1080.287231	8.070575
252.645187	1063.197632	1283.728149	1078.949829	7.142865
253.019165	1062.974731	1294.056152	1073.302856	4.469474
253.393112	1059.333862	1299.926147	1077.909546	7.720814
253.767044	1062.231689	1282.242065	1081.476074	8.747035
254.140930	1053.686890	1268.867554	1078.726929	11.636751
254.514801	1049.674561	1254.006958	1076.646484	13.200024
254.888657	1044.473267	1247.914185	1070.405151	12.746642
255.262466	1056.510376	1246.948242	1075.011841	9.715223
255.636276	1057.922119	1253.115356	1072.857056	7.651360
256.010010	1058.962280	1266.266968	1082.813599	11.505441
256.383759	1047.445435	1275.406250	1091.209839	19.198214
256.757446	1043.804565	1275.703369	1093.884644	21.595661
257.131134	1045.959351	1283.802368	1090.392456	18.681694
257.504791	1043.879028	1294.724976	1082.962158	15.580531
257.878418	1048.411499	1321.399536	1076.869385	10.424591
258.252014	1046.628052	1341.312744	1074.268677	9.379729
258.625580	1053.092407	1378.390015	1078.058105	7.674726
258.999115	1046.182251	1419.256348	1078.429688	8.643708
259.372650	1041.872681	1464.804077	1077.389526	8.397779
259.746124	1041.352661	1517.038696	1075.754883	7.232128
260.119598	1054.504272	1579.675781	1082.813599	5.390491
260.493042	1063.271973	1637.334595	1086.380005	4.025351
260.866425	1062.826050	1658.733887	1088.906372	4.376570
261.239838	1049.377319	1630.498901	1083.333740	5.843256
261.613159	1052.126465	1578.041016	1084.819824	6.216477
261.986511	1051.903442	1516.890015	1082.070557	6.487739
262.359802	1056.956177	1470.525024	1086.157227	7.060747
262.733063	1054.281250	1445.187866	1085.042603	7.869233
263.106293	1057.624878	1430.401733	1089.426636	8.531044
263.479523	1067.135742	1437.460449	1091.729858	6.641230
263.852692	1062.974731	1439.243652	1093.958862	8.234571
264.225861	1062.231812	1446.748413	1097.822632	9.255991
264.598969	1049.451782	1441.324219	1094.924927	11.604068
264.972076	1050.269165	1438.723633	1091.729858	10.673244
265.345154	1041.724243	1440.135376	1089.129272	11.898520
265.718201	1046.553833	1452.543945	1090.764038	10.889479
266.091217	1053.315308	1472.605591	1092.547119	9.356718
266.464203	1057.401978	1500.989258	1084.819702	6.180909
266.837158	1054.801392	1516.890015	1080.138672	5.483208
267.210114	1043.061523	1540.889771	1080.138672	7.447779
267.583038	1047.222534	1564.741089	1085.265503	7.351035
267.955902	1052.795166	1583.168091	1084.448242	5.968079
268.328766	1052.200806	1583.985352	1080.881714	5.393332
268.701569	1046.033691	1577.446777	1075.680542	5.578871
269.074371	1042.170044	1583.762329	1075.828979	6.214811
269.447144	1045.662231	1599.440430	1080.138672	6.225677
269.819885	1053.389648	1614.300903	1079.172729	4.596642
270.192596	1048.708496	1634.734009	1086.677368	6.479048
270.565277	1054.504150	1653.012573	1083.185181	4.792085
270.937927	1049.525879	1694.845093	1080.287231	4.766843
271.310577	1055.470093	1740.021118	1074.714478	2.811242
271.683136	1056.881836	1800.800781	1079.767090	3.076310
272.055725	1051.977905	1841.667358	1079.246948	3.453135
272.428284	1053.686890	1857.122192	1081.178833	3.421799
272.800812	1051.680786	1847.239868	1074.714600	2.895299
273.173279	1060.151245	1820.342407	1075.606201	2.033036
273.545776	1057.253418	1805.258911	1076.349243	2.552899
273.918152	1051.383423	1792.924683	1077.909546	3.577161
274.290558	1054.281250	1790.992798	1084.596802	4.114983
274.662964	1049.600220	1784.156860	1087.271606	5.128452
275.035278	1042.690186	1786.163086	1090.318115	6.406142
275.407593	1040.906860	1779.104492	1091.655640	6.874687
275.779907	1044.547607	1801.766724	1090.912598	6.123061
276.152161	1050.417480	1818.930664	1090.986816	5.278938
276.524384	1044.621948	1855.041870	1087.643188	5.308512
276.896606	1048.337036	1866.261353	1084.373901	4.405892
277.268799	1052.795288	1883.202515	1083.779419	3.731197
277.640930	1058.367920	1892.564453	1086.082886	3.322355
278.013031	1051.086304	1905.270142	1087.048828	4.210162
278.385162	1050.863403	1899.400391	1093.513184	5.026272
278.757233	1050.937622	1897.319946	1094.627686	5.161977
279.129272	1057.996460	1899.549194	1092.175781	4.061459
279.501282	1062.083130	1910.768921	1085.488525	2.757840
279.873230	1051.532104	1935.065796	1084.894043	3.775967
280.245178	1051.457764	1952.749878	1087.346069	3.981873
280.617126	1048.114136	2004.018555	1087.791870	4.150805
280.988983	1057.327759	2039.683960	1084.151001	2.730501
281.360870	1060.522705	2090.581299	1084.522461	2.329941
281.732697	1052.423706	2134.494141	1080.956055	2.636829
282.104492	1047.222534	2186.134521	1078.949829	2.785755
282.476288	1042.170044	2227.372803	1077.389526	2.971600
282.848053	1051.086304	2256.499268	1080.138672	2.410159
283.219757	1059.259644	2270.616943	1087.048828	2.294054
283.591461	1063.420532	2263.335205	1088.980713	2.130167
283.963135	1060.448364	2250.406494	1095.742188	2.965972
284.334747	1052.572388	2255.087402	1097.005371	3.695004
284.706360	1049.971802	2290.455566	1090.169556	3.240490
285.077942	1051.457886	2330.430420	1084.299683	2.567827
285.449524	1050.863281	2371.519775	1078.875488	2.121082
285.821014	1052.349487	2394.776611	1086.380127	2.535008
286.192535	1045.439331	2439.209717	1085.859985	2.900094
286.563995	1050.714844	2476.806885	1085.711304	2.454011
286.935425	1040.832520	2519.754150	1079.990112	2.647712
287.306824	1051.680786	2516.038818	1085.934204	2.339142
287.678223	1053.315430	2484.088623	1090.243774	2.581006
288.049561	1060.151367	2432.299561	1088.757813	2.084793
288.420898	1049.526001	2396.114258	1081.030396	2.339571
288.792145	1043.878906	2384.522705	1075.754883	2.377662
289.163452	1047.965576	2397.897461	1084.745483	2.724575
289.534668	1050.640503	2433.116943	1085.339844	2.509941
289.905914	1049.302979	2471.754150	1085.488525	2.543887
290.277039	1043.730347	2533.053955	1078.429810	2.329881
290.648193	1052.646606	2596.731445	1080.510254	1.804541
291.019318	1058.070801	2663.975586	1087.048828	1.804467
291.390381	1060.374146	2683.442871	1091.952881	1.945619
291.761475	1059.185425	2674.675049	1094.924927	2.212301
292.132507	1060.076904	2631.876709	1092.324341	2.051625
292.503510	1055.692993	2598.737549	1089.129272	2.166903
292.874481	1051.755005	2575.629639	1083.482300	2.082015
293.245422	1045.216431	2585.586182	1079.990112	2.257489
293.616364	1048.485840	2620.359619	1085.711304	2.368222
293.987213	1048.708618	2664.198486	1089.426392	2.520460
294.358093	1053.687012	2733.596924	1091.209839	2.233621
294.728943	1057.030640	2821.051514	1083.185059	1.482659
295.099731	1057.030518	2906.722412	1083.185059	1.413994
295.470490	1058.368042	2950.041016	1077.017944	0.985895
295.841248	1052.200806	2967.947998	1082.962280	1.605717
296.211975	1046.628052	3003.167236	1075.606323	1.481098
296.582642	1045.587891	3067.736328	1078.652588	1.635127
296.953308	1050.194702	3153.853516	1080.510132	1.441081
297.323883	1059.482544	3200.589844	1087.568970	1.311771
297.694519	1053.909790	3242.719482	1092.175781	1.748256
298.065063	1056.287476	3251.412842	1092.175659	1.634904
298.435608	1053.092529	3227.487061	1090.243774	1.708579
298.806122	1055.247192	3143.896484	1101.537842	2.216296
299.176575	1052.126587	3027.910156	1100.794800	2.463236
299.547028	1050.491821	2956.208252	1104.807251	2.850132
299.917450	1056.213257	2923.812256	1093.290405	1.985284
300.287872	1053.835449	2927.007080	1091.061157	1.987309
300.658234	1056.138794	2919.576904	1083.779419	1.483313
301.028564	1054.875610	2896.840088	1087.643188	1.778947
301.398865	1061.414307	2872.246094	1083.333618	1.210455
301.769135	1057.699219	2863.552734	1089.352173	1.752797
302.139374	1058.145020	2874.475342	1090.838135	1.799954
302.509583	1053.984009	2897.954834	1098.937134	2.437844
302.879791	1056.658813	2898.549072	1092.249878	1.932312
303.249939	1052.869507	2886.660889	1090.838257	2.070505
303.620087	1049.302979	2839.849854	1080.584473	1.747036
303.990173	1045.736450	2813.026611	1090.912598	2.556238
304.360260	1047.073853	2795.862549	1090.243774	2.468561
304.730286	1053.018066	2811.986328	1092.695801	2.255739
305.100281	1061.934448	2825.212158	1088.832031	1.525431
305.470276	1059.928223	2841.187500	1086.380005	1.485005
305.840179	1055.172852	2859.317383	1095.370728	2.228085
306.210144	1043.507324	2874.400391	1091.804199	2.637886
306.579987	1047.519653	2896.393799	1095.742188	2.608211
306.949890	1051.011963	2909.768799	1095.667969	2.402466
307.319702	1056.881836	2945.136719	1093.810425	1.955699
307.689484	1049.228638	2981.248047	1084.448120	1.822936
308.059265	1039.197754	3023.451904	1081.178833	2.115711
308.429016	1034.293945	3069.742920	1084.150879	2.449432
308.798737	1031.544800	3134.311523	1096.336548	3.081262
309.168396	1039.346558	3208.837158	1095.222046	2.575512
309.538055	1047.668335	3269.988281	1097.971313	2.263535
309.907684	1052.869629	3291.536133	1090.392456	1.676124
310.277313	1047.222534	3310.334717	1094.702026	2.097973
310.646851	1040.758179	3326.532471	1091.284058	2.210449
311.016388	1046.182251	3346.074219	1092.770142	2.025656
311.385895	1057.179077	3343.547852	1089.500854	1.413673
311.755371	1058.219360	3345.554443	1087.420288	1.276635
312.124817	1054.801392	3362.718018	1085.042603	1.310325
312.494232	1049.674561	3366.284424	1083.482178	1.459357
312.863617	1056.361816	3343.325195	1094.627563	1.673212
313.232971	1057.476318	3307.511475	1101.909302	1.974768
313.602295	1063.197632	3289.530029	1105.995972	1.922370
313.971619	1057.699219	3302.235596	1102.578003	1.999468
314.340820	1059.259521	3315.239014	1103.321167	1.953105
314.710083	1053.761230	3366.953369	1112.014526	2.518308
315.079285	1052.943848	3402.618896	1117.067261	2.729033
315.448486	1057.476318	3450.618408	1121.302368	2.667040
315.817596	1057.550537	3431.225342	1118.924683	2.585617
316.186707	1057.922119	3385.900391	1116.101196	2.499125
316.555786	1049.525879	3323.114990	1115.655396	2.908596
316.924866	1047.594116	3273.778076	1118.107422	3.167452
317.293884	1045.959351	3246.063232	1122.713989	3.488682
317.662872	1049.971680	3231.499756	1123.159912	3.354907
318.031830	1052.423706	3237.592529	1124.051636	3.277913
318.400757	1049.451660	3255.425049	1128.732666	3.593924
318.769684	1046.479614	3273.183594	1133.562378	3.910837
319.138550	1033.476563	3292.130859	1134.008057	4.450946
