Jaz Data File
++++++++++++++++++++++++++++++++++++
Date: Fri Jun 04 16:36:33 2021
User: jaz
Dark Spectrum Present: Yes
Reference Spectrum Present: Yes
Processed Spectrum Present: Yes
Spectrometers: JAZA3586
Integration Time (usec): 40000 (JAZA3586)
Spectra Averaged: 10 (JAZA3586)
Boxcar Smoothing: 1 (JAZA3586)
Correct for Electrical Dark: No (JAZA3586)
Strobe/Lamp Enabled: Yes (JAZA3586)
Correct for Detector Non-linearity: No (JAZA3586)
Correct for Stray Light: No (JAZA3586)
Number of Pixels in Processed Spectrum: 2048
>>>>>Begin Processed Spectral Data<<<<<
W	D	R	S	P
191.335022	0.000000	0.000000	0.000000	0.000000
191.713211	235.539627	237.917343	235.242432	-12.499198
192.091385	476.280426	474.943024	476.280426	-0.000000
192.469528	722.668274	719.027527	722.148132	14.286673
192.847641	729.504150	732.847717	729.578430	2.221573
193.225739	737.825989	749.268555	735.448242	-20.779837
193.603790	744.141785	755.807312	739.757874	-37.580051
193.981842	754.246887	753.429626	745.999329	1009.171021
194.359863	759.968262	752.612305	756.921875	41.413872
194.737854	758.482239	759.225281	764.203552	769.985229
195.115829	763.088928	769.701965	764.054871	14.606638
195.493774	763.534851	771.782410	763.311829	-2.704103
195.871704	769.627625	772.451172	764.723633	-173.681931
196.249603	763.683411	763.757629	773.045471	12614.144531
196.627457	755.881592	764.500671	771.410828	180.172791
197.005310	756.401672	763.386169	768.438782	172.340393
197.383133	756.104492	766.283936	771.187927	148.175446
197.760910	762.717468	769.256042	766.432617	56.818947
198.138687	758.259277	768.958801	763.534729	49.305481
198.516449	763.609070	776.314758	757.293274	-49.708412
198.894180	757.962097	772.822571	757.367676	-4.000016
199.271866	760.191101	764.797913	758.184998	-43.546463
199.649536	755.212891	757.367676	751.794922	-158.622253
200.027191	756.401672	762.345886	748.971436	-124.999489
200.404816	749.565857	763.014648	747.188171	-17.679548
200.782410	748.302734	770.965027	760.116882	52.131302
201.159988	756.550293	771.633789	769.924805	88.669838
201.537537	759.448059	786.419983	768.736023	34.435673
201.915070	757.516296	790.209473	766.432617	27.272728
202.292557	752.389343	789.912292	765.615234	35.247471
202.670029	759.893982	793.181458	768.215820	24.999908
203.047485	755.361389	786.122803	764.426453	29.468943
203.424911	751.646301	790.432373	754.989929	8.620692
203.802292	742.507080	787.608887	750.457520	17.627762
204.179688	745.924988	791.101074	751.720703	12.829166
204.557037	746.890869	787.311707	757.813477	27.022219
204.934357	749.045715	786.122803	761.602844	33.867626
205.311661	749.120056	783.076355	756.401672	21.444080
205.688934	746.222229	785.008301	748.599915	6.130256
206.066177	740.203613	777.949524	743.844543	9.645893
206.443390	738.494690	772.971191	742.284180	10.991515
206.820587	739.534973	766.655457	740.649597	4.109897
207.197769	743.175781	775.125977	737.825989	-16.744162
207.574921	747.485352	779.955627	740.500977	-21.510057
207.952042	749.714539	777.355042	747.039551	-9.677783
208.329147	745.702087	779.584167	749.863037	12.280680
208.706223	752.983826	793.553040	759.968262	17.216099
209.083267	749.342957	799.200012	755.361511	12.071621
209.460297	759.225159	798.754211	762.791687	9.022550
209.837280	752.760803	787.460205	750.308899	-7.066128
210.214264	747.411133	791.175354	759.968262	28.692682
210.591217	738.271912	781.293152	749.640137	26.424681
210.968124	733.070618	783.596497	758.407898	50.147133
211.345016	739.832214	783.150696	750.680359	25.042763
211.721893	738.346130	781.887512	758.036377	45.221916
212.098724	740.129395	780.104309	749.937439	24.535498
212.475555	743.547302	774.605896	756.030212	40.191486
212.852356	740.055115	774.828796	750.160339	29.059978
213.229126	738.866272	775.794678	746.519531	20.724586
213.605865	737.454529	767.844238	737.231628	-0.733473
213.982590	742.061340	767.844238	736.860107	-20.173189
214.359283	746.890930	760.042480	737.825989	-68.926788
214.735931	741.169678	767.770020	738.569092	-9.776513
215.112579	745.479187	770.221985	743.250183	-9.008698
215.489197	737.083008	771.782410	744.959167	22.698257
215.865799	736.637207	775.646057	747.113831	26.857042
216.242355	728.092285	773.491272	743.621643	34.206398
216.618896	734.110840	778.915344	746.742371	28.192547
216.995407	735.968445	770.816406	743.250183	20.895737
217.371902	738.271790	773.342773	738.866211	1.694909
217.748367	735.522644	765.392334	731.361633	-13.930546
218.124802	740.426575	775.125977	732.847656	-21.841640
218.501236	746.147949	772.005310	735.299805	-41.953796
218.877609	748.079773	777.652344	728.835449	-65.074913
219.253983	741.095276	769.553284	729.206970	-41.774906
219.630295	736.934387	769.107422	729.652771	-22.632668
220.006592	736.934387	763.460449	739.312073	8.963583
220.382889	739.237793	764.797852	734.259521	-19.476761
220.759140	737.231628	767.992920	732.699036	-14.734729
221.135391	739.609314	776.389160	734.556641	-13.737614
221.511581	742.729980	777.949524	745.107666	6.751040
221.887772	746.147949	781.218811	745.702148	-1.271143
222.263931	749.194275	777.280762	742.061279	-25.396540
222.640060	748.154053	779.286926	733.219238	-47.971203
223.016159	747.633972	780.921631	743.472961	-12.500160
223.392212	738.866211	789.243469	753.875427	29.793634
223.768265	736.414246	790.135071	761.157043	46.058113
224.144302	738.049011	788.574707	749.342957	22.352875
224.520294	744.884766	777.652283	740.055176	-14.738955
224.896286	750.606140	781.293030	739.609314	-35.835583
225.272217	750.531738	777.875183	747.931152	-9.510820
225.648148	752.017822	774.382996	748.822815	-14.285636
226.024048	741.987000	776.314880	751.869202	28.787685
226.399902	738.420410	786.419983	745.776367	15.325047
226.775772	739.832214	798.828613	746.296570	10.957204
227.151581	749.194336	795.261963	744.736145	-9.677492
227.527374	748.154114	792.438477	749.417297	2.852437
227.903137	747.411072	788.574707	750.531799	7.581273
228.278870	742.061279	788.054688	751.274841	20.032352
228.654572	749.417236	785.454102	743.324402	-16.907227
229.030273	740.352356	787.980408	739.312073	-2.184182
229.405930	741.987000	786.048523	730.915833	-25.126610
229.781555	729.652649	782.184814	735.894226	11.881439
230.157181	729.652771	788.574768	737.900391	13.997522
230.532761	730.470032	785.602600	739.089172	15.633483
230.908325	736.934387	786.345642	736.265625	-1.353461
231.283859	737.305908	782.779114	738.569031	2.777729
231.659332	739.683594	790.357971	739.460693	-0.439868
232.034821	743.547363	794.964783	743.993164	0.867023
232.410263	747.931152	789.837891	743.844543	-9.751675
232.785690	743.695984	781.961853	746.742371	7.961107
233.161087	739.460693	775.423157	743.621582	11.570088
233.536469	736.562805	766.655518	746.370850	32.592758
233.911804	730.915833	767.547180	744.141785	36.105556
234.287140	736.562805	766.135437	744.141785	25.628357
234.662430	739.832214	780.995911	734.036621	-14.079380
235.037704	753.206726	784.933899	735.299744	-56.440525
235.412933	751.349121	791.546875	732.773438	-46.210751
235.788162	750.308899	786.642883	735.894226	-39.672699
236.163345	744.438965	786.865784	731.436035	-30.647902
236.538513	742.209961	784.636780	735.968445	-14.711251
236.913635	737.008728	790.580994	742.804260	10.818158
237.288742	735.522644	793.330139	752.983704	30.205528
237.663834	736.488586	791.621155	754.246887	32.210182
238.038879	739.237793	782.779114	754.321228	34.641659
238.413910	737.974609	784.190918	745.627747	16.559387
238.788910	742.878601	789.540710	748.154053	11.305643
239.163879	738.271790	791.175354	746.593750	15.730434
239.538834	739.312073	782.110413	748.005554	20.312660
239.913757	733.665039	779.955627	743.473083	21.187988
240.288651	734.556641	781.664612	742.135559	16.088400
240.663528	735.299744	789.615051	746.890930	21.340551
241.038361	735.002441	788.500488	750.160217	28.333326
241.413177	736.562805	784.933899	746.370850	20.276665
241.787979	730.915833	787.460266	747.856934	29.960688
242.162735	731.807556	795.187744	740.872498	14.302485
242.537476	737.677429	801.503479	742.730042	7.916223
242.912170	747.485352	795.336365	742.358582	-10.714026
243.286865	745.999329	787.608887	751.423401	13.035640
243.661514	738.346191	784.785339	756.104492	38.239937
244.036148	737.677429	786.791504	752.983704	31.164742
244.410751	740.203796	798.308411	747.188171	12.020345
244.785339	742.135559	805.070007	749.565857	11.806408
245.159882	738.271790	801.577698	750.085938	18.661999
245.534378	739.980774	800.686218	755.584290	25.703651
245.908890	746.668152	793.776062	750.457458	8.043886
246.283356	744.736267	794.073242	749.640137	9.939543
246.657791	742.581360	791.026794	742.952881	0.766885
247.032196	737.008728	799.943115	743.473083	10.271580
247.406586	736.637207	811.905823	741.987000	7.107601
247.780960	730.395813	814.506348	753.949707	28.003500
248.155289	731.733215	806.258789	751.869324	27.019058
248.529602	733.813660	798.308411	753.801086	30.990780
248.903870	740.278015	786.568604	748.228455	17.175066
249.278122	738.791992	788.946289	748.674255	19.703722
249.652344	736.340027	792.958679	744.959167	15.223146
250.026550	736.860046	800.686096	741.020996	6.519203
250.400711	735.225403	797.491028	747.188171	19.212477
250.774857	737.603210	794.147461	749.640137	21.287622
251.148987	740.278076	789.466492	747.856934	15.407809
251.523071	739.460693	794.296082	736.339905	-5.691195
251.897125	737.603027	798.531311	738.866211	2.073230
252.271164	731.733154	807.967773	737.677429	7.797343
252.645187	740.055115	813.837708	742.878601	3.826765
253.019165	733.070618	810.642761	737.157288	5.268219
253.393112	741.689758	814.506409	750.383118	11.938697
253.767044	735.894104	814.060608	748.376953	15.969563
254.140930	745.330627	812.500244	746.370850	1.548650
254.514801	735.745605	799.868835	735.819824	0.115744
254.888657	737.677429	787.088684	738.049011	0.752019
255.262466	742.284180	784.859680	746.668030	10.296650
255.636276	744.067566	790.358093	753.726868	20.866692
256.010010	745.702148	804.921387	753.801086	13.676194
256.383759	740.129395	811.608643	746.445129	8.835760
256.757446	741.318176	819.038879	737.603088	-4.780049
257.131134	739.534973	811.608643	738.643372	-1.237070
257.504791	738.791931	810.419739	744.959045	8.609944
257.878418	735.968445	807.001892	749.194336	18.619244
258.252014	736.860046	812.500244	753.726807	22.298674
258.625580	739.906433	824.908875	760.191162	23.863701
258.999115	740.946716	831.521729	754.172668	14.602208
259.372650	738.643311	845.564941	745.330566	6.254353
259.746124	738.271790	855.224304	727.200684	-9.466326
260.119598	736.637207	866.815613	733.144958	-2.682663
260.493042	740.426575	865.255188	737.974609	-1.964265
260.866425	737.528809	863.100403	748.748535	8.934924
261.239838	736.860107	855.298645	750.531799	11.543280
261.613159	735.076843	852.549500	748.005554	11.005719
261.986511	737.825989	845.490723	750.160339	11.456259
262.359802	738.569031	840.883972	750.977539	12.127758
262.733063	743.250061	833.007874	752.612244	10.430493
263.106293	739.832214	827.137878	745.850769	6.893659
263.479523	743.027283	830.555847	741.169678	-2.122284
263.852692	730.915833	832.339050	736.117004	5.128187
264.225861	734.779602	835.162598	742.209961	7.402009
264.598969	737.305847	835.459778	744.141785	6.964507
264.972076	739.386414	831.967529	742.655701	3.531268
265.345154	737.900330	834.791016	743.027161	5.291356
265.718201	734.928223	831.224548	738.717590	3.935111
266.091217	743.250061	844.004578	745.702148	2.433725
266.464203	745.479187	848.462708	745.256287	-0.216443
266.837158	748.897156	856.710388	748.451355	-0.413494
267.210114	748.302734	861.614258	746.519470	-1.573771
267.583038	750.234558	873.502747	747.708252	-2.049439
267.955902	750.160217	871.793762	747.188171	-2.443443
268.328766	748.599915	872.611145	750.977539	1.917266
268.701569	746.965149	867.187012	749.417236	2.039635
269.074371	742.284180	875.806152	749.714417	5.564805
269.447144	740.203674	877.960938	747.633972	5.393761
269.819885	735.596924	887.323059	746.668030	7.296769
270.192596	739.757874	894.456116	751.126221	7.348724
270.565277	736.117004	908.425049	755.732971	11.384243
270.937927	743.101501	912.214539	755.881531	7.557093
271.310577	740.723816	925.143250	741.169617	0.241732
271.683136	741.838379	932.424866	734.482422	-3.859643
272.055725	738.049011	938.963440	735.002502	-1.516322
272.428284	739.683594	933.093567	742.581360	1.498251
272.800812	742.878662	935.174072	743.695862	0.424971
273.173279	745.702148	932.722107	740.575195	-2.741394
273.545776	740.723816	938.369141	744.141785	1.729345
273.918152	734.036621	933.093567	747.559631	6.793539
274.290558	732.624817	937.774597	748.154114	7.569736
274.662964	738.197510	924.251526	746.668152	4.552786
275.035278	743.175781	919.793396	740.500977	-1.514461
275.407593	738.940613	919.867737	737.157288	-0.985659
275.779907	742.432800	933.910950	737.231628	-2.716326
276.152161	741.689758	951.594971	729.949951	-5.592909
276.524384	744.290344	957.316223	735.522644	-4.115791
276.896606	744.513245	964.895081	733.442139	-5.023602
277.268799	755.064270	969.724792	745.404846	-4.499860
277.640930	753.652527	977.823792	744.141785	-4.242623
278.013031	750.754700	979.532776	751.349121	0.259824
278.385162	744.141785	973.885742	743.250183	-0.388085
278.757233	754.246887	974.851746	743.250061	-4.984852
279.129272	752.537903	983.990906	736.191406	-7.062555
279.501282	757.516296	996.548096	749.714417	-3.263951
279.873230	748.897156	998.702881	748.005554	-0.356918
280.245178	742.730042	997.588379	746.890930	1.632628
280.617126	735.596985	1010.219788	741.541199	2.164501
280.988983	735.819824	1028.126831	745.181946	3.202839
281.360870	743.918884	1047.891235	747.782532	1.271052
281.732697	743.993164	1054.429810	749.863037	1.890844
282.104492	744.661865	1068.918823	746.222168	0.481193
282.476288	736.191406	1091.952759	747.262390	3.111913
282.848053	738.866211	1104.732788	747.559631	2.376118
283.219757	736.785828	1101.983643	752.240723	4.231924
283.591461	740.129395	1097.451172	751.274841	3.119163
283.963135	741.764160	1095.667969	747.485352	1.616595
284.334747	738.049011	1104.955811	748.451233	2.835113
284.706360	740.575195	1105.550293	751.497742	2.992683
285.077942	738.494812	1118.181641	752.166504	3.600781
285.449524	743.250183	1134.453979	748.525574	1.348502
285.821014	737.603088	1153.846924	748.971436	2.731175
286.192535	740.055176	1171.382446	743.175781	0.723489
286.563995	737.751709	1191.072632	740.278015	0.557289
286.935425	747.708252	1201.772217	741.466980	-1.374536
287.306824	750.160217	1196.273804	750.680420	0.116608
287.678223	754.767029	1184.979858	753.132385	-0.379962
288.049561	752.983704	1178.441162	751.646301	-0.314345
288.420898	748.376953	1175.097534	749.417297	0.243800
288.792145	749.937317	1180.521606	752.909485	0.690264
289.163452	750.977600	1175.469116	761.008484	2.363035
289.534668	748.897156	1186.243042	757.219055	1.902819
289.905914	748.599915	1198.057129	751.720703	0.694346
290.277039	746.370850	1227.183716	742.507080	-0.803591
290.648193	753.578186	1252.966797	744.290344	-1.859843
291.019318	744.513367	1266.935669	750.308899	1.109358
291.390381	742.581482	1277.635254	750.754639	1.527539
291.761475	740.649597	1271.096558	742.358398	0.322144
292.132507	743.175781	1268.421753	741.243835	-0.367817
292.503510	747.039551	1258.836670	742.581360	-0.871086
292.874481	744.959045	1262.923340	745.776367	0.157795
293.245422	745.999329	1268.347412	748.599915	0.497865
293.616364	745.925049	1282.019043	746.593750	0.124736
293.987213	745.850769	1299.331665	751.943542	1.100810
294.358093	746.667969	1330.167236	747.411072	0.127353
294.728943	740.649475	1359.294067	745.553467	0.792699
295.099731	737.603027	1393.176147	745.553528	1.212756
295.470490	738.123230	1415.689819	747.262512	1.348839
295.841248	735.299744	1432.482056	747.411072	1.737182
296.211975	735.002502	1443.033203	740.946777	0.839550
296.582642	735.002502	1452.395142	742.655762	1.066816
296.953308	741.689758	1481.298950	749.714417	1.084986
297.323883	744.216064	1509.608398	760.711243	2.155127
297.694519	744.587585	1534.796997	755.435791	1.372827
298.065063	743.918762	1546.908325	746.519470	0.323878
298.435608	741.912659	1534.871216	742.507141	0.074970
298.806122	736.637207	1508.939575	754.989990	2.376373
299.176575	735.448242	1464.803711	759.002380	3.229446
299.547028	732.699036	1429.435669	754.247009	3.092700
299.917450	733.962219	1411.751587	738.123230	0.613909
300.287872	737.974609	1410.859985	734.259460	-0.552122
300.658234	741.095398	1424.160156	739.906494	-0.174054
301.028564	745.330566	1431.441772	738.569031	-0.985487
301.398865	751.943542	1438.797852	742.729980	-1.341414
301.769135	751.349121	1433.893921	739.163391	-1.785338
302.139374	753.503906	1430.104492	742.507141	-1.625296
302.509583	741.095276	1426.612183	738.791992	-0.335992
302.879791	748.451355	1427.206665	741.838379	-0.974280
303.249939	748.079773	1425.571899	745.033386	-0.449656
303.620087	750.754639	1424.160278	745.850647	-0.728237
303.990173	746.445129	1425.200562	741.912659	-0.667762
304.360260	740.055115	1431.664917	742.655701	0.376019
304.730286	740.426575	1433.596680	744.810486	0.632444
305.100281	738.420410	1442.587280	745.999268	1.076287
305.470276	737.677429	1446.302368	752.463623	2.086604
305.840179	737.677429	1453.286987	758.853699	2.959193
306.210144	729.578430	1460.122681	760.711243	4.261591
306.579987	730.544373	1462.054688	755.658691	3.433215
306.949890	725.194580	1475.131836	750.606140	3.388491
307.319702	736.340027	1483.973999	755.138489	2.514394
307.689484	739.906555	1496.085327	757.070496	2.269826
308.059265	742.804382	1511.985962	747.856934	0.656874
308.429016	736.860107	1536.505981	738.197571	0.167257
308.798737	738.123230	1572.691406	733.739319	-0.525291
309.168396	741.541199	1601.520874	743.101563	0.181442
309.538055	742.061279	1619.799316	745.702148	0.414801
309.907684	738.420471	1642.313110	741.392578	0.328812
310.277313	726.977844	1656.505005	741.541199	1.566749
310.646851	732.624817	1675.675171	743.547302	1.158208
311.016388	738.940613	1684.219849	750.160339	1.186922
311.385895	750.011719	1698.114380	748.451355	-0.164578
311.755371	752.612305	1700.343384	747.782532	-0.509614
312.124817	753.801086	1709.557007	743.770264	-1.049517
312.494232	752.017822	1702.721069	739.906494	-1.273934
312.863617	742.135559	1703.761353	735.076843	-0.734040
313.232971	742.581360	1689.792603	740.129456	-0.258855
313.602295	742.581360	1679.910278	747.634033	0.539050
313.971619	748.228455	1674.040161	761.900085	1.476718
314.340820	739.163513	1688.603516	761.379944	2.339951
314.710083	743.918884	1723.823120	758.259277	1.463448
315.079285	739.609375	1758.299683	747.559753	0.780451
315.448486	747.262512	1771.971313	747.188171	-0.007255
315.817596	750.457520	1760.380249	751.126221	0.066213
316.186707	750.606140	1746.039673	760.562683	1.000222
316.555786	749.268738	1725.234985	755.138611	0.601442
316.924866	745.702148	1713.866577	745.107727	-0.061397
317.293884	746.965332	1705.767578	741.169678	-0.604468
317.662872	748.005554	1698.040039	745.404846	-0.273749
318.031830	745.776367	1687.489136	746.667969	0.094679
318.400757	745.553528	1689.049438	745.776367	0.023618
318.769684	743.844543	1701.532227	744.438965	0.062068
319.138550	739.312073	1723.823120	746.742371	0.754720
319.507416	743.695984	1740.244141	745.330566	0.164024
319.876190	746.445129	1749.160278	746.742371	0.029644
320.244995	753.652527	1759.042603	751.794922	-0.184765
320.613770	752.760925	1748.194336	756.847473	0.410529
320.982483	744.290344	1732.070679	760.265381	1.617266
321.351166	733.293640	1711.043091	758.556458	2.583772
321.719818	729.801331	1700.046265	754.618469	2.557822
322.088440	735.819885	1712.529297	749.268616	1.376943
322.457062	740.203674	1727.761230	748.376953	0.827626
322.825623	738.791992	1749.234741	746.816650	0.794172
323.194183	737.157288	1777.841309	749.342957	1.170929
323.562653	736.117004	1808.528320	741.689758	0.519647
323.931183	740.723816	1846.794067	737.677429	-0.275424
324.299591	740.500916	1883.648438	734.185242	-0.552481
324.668060	739.683533	1928.824341	740.129395	0.037494
325.036407	741.912659	1974.074707	745.925049	0.325638
