Jaz Data File
++++++++++++++++++++++++++++++++++++
Date: Fri Jun 04 16:39:22 2021
User: jaz
Dark Spectrum Present: Yes
Reference Spectrum Present: Yes
Processed Spectrum Present: Yes
Spectrometers: JAZA3586
Integration Time (usec): 24500 (JAZA3586)
Spectra Averaged: 10 (JAZA3586)
Boxcar Smoothing: 1 (JAZA3586)
Correct for Electrical Dark: No (JAZA3586)
Strobe/Lamp Enabled: Yes (JAZA3586)
Correct for Detector Non-linearity: No (JAZA3586)
Correct for Stray Light: No (JAZA3586)
Number of Pixels in Processed Spectrum: 2048
>>>>>Begin Processed Spectral Data<<<<<
W	D	R	S	P
191.335022	0.000000	0.000000	0.000000	0.000000
191.713211	234.722305	237.694412	236.208359	50.000000
192.091385	468.330078	472.342407	479.624054	281.481781
192.469528	711.002747	710.185364	717.615662	-809.035217
192.847641	720.513489	715.535156	727.720886	-144.775330
193.225739	732.476257	730.321472	727.572205	227.588943
193.603790	736.860046	741.615417	739.832214	62.501282
193.981842	742.209778	745.999268	751.571960	247.056549
194.359863	749.714417	747.931152	759.225281	-533.340149
194.737854	753.281006	751.571960	763.163269	-578.232910
195.115829	747.039551	756.253113	755.955872	96.773872
195.493774	744.364685	757.144714	751.423340	55.231915
195.871704	749.268555	759.448059	743.398743	-57.663044
196.249603	759.002258	755.435791	746.296570	356.254181
196.627457	760.636963	752.909485	752.612244	103.846550
197.005310	755.881531	750.606140	763.534729	-145.073578
197.383133	752.166443	758.853760	762.271667	151.110306
197.760910	752.389343	761.008484	768.215881	183.620834
198.138687	755.287109	762.420227	764.723633	132.291718
198.516449	752.240723	760.859863	758.853699	76.724312
198.894180	751.274841	756.847473	746.147949	-92.001274
199.271866	746.296570	753.726746	743.027161	-44.001774
199.649536	747.931152	745.553467	747.782532	6.250642
200.027191	745.330566	743.918762	753.429626	-573.667358
200.404816	742.061218	748.822815	749.937317	116.482819
200.782410	740.872375	757.516296	755.658691	88.839142
201.159988	741.615479	771.856628	759.150879	57.985229
201.537537	743.101563	774.977356	771.410889	88.811363
201.915070	746.668030	783.076355	766.804199	55.306496
202.292557	738.271790	776.314758	762.568848	63.867409
202.670029	741.838379	782.556213	764.054932	54.562218
203.047485	737.751770	773.491272	763.088928	70.893990
203.424911	742.655762	778.766846	766.358215	65.637611
203.802292	737.677429	770.742126	760.934143	70.336990
204.179688	736.042786	779.286926	767.398438	72.508438
204.557037	742.358459	782.481934	766.283936	59.629623
204.934357	742.358459	784.562439	761.231384	44.718353
205.311661	743.324463	778.692566	749.417236	17.226746
205.688934	732.030457	775.125977	748.599915	38.448215
206.066177	735.225403	778.692566	745.850769	24.444582
206.443390	736.340027	784.785339	750.606140	29.447872
206.820587	742.284180	788.723389	752.835144	22.719948
207.197769	739.312195	785.676941	761.454285	47.756306
207.574921	737.305908	784.488098	770.221985	69.763771
207.952042	735.225403	780.773010	764.500671	64.274002
208.329147	738.271790	777.726563	753.355286	38.229839
208.706223	746.816589	772.748291	757.441956	40.974426
209.083267	751.720642	772.971191	762.494446	50.698940
209.460297	741.764099	775.125977	766.581238	74.387718
209.837280	732.476257	776.983459	756.178711	53.255322
210.214264	727.052063	778.915344	755.064270	54.011635
210.591217	727.275085	770.890686	758.705078	72.061356
210.968124	726.309082	769.999023	754.024109	63.435715
211.345016	731.064453	772.525391	749.417236	44.265240
211.721893	742.878601	779.509827	749.342957	17.647118
212.098724	746.965271	777.800842	757.070374	32.770927
212.475555	745.181946	776.983582	753.429504	25.934385
212.852356	737.528809	783.670715	752.092102	31.561968
213.229126	732.476257	784.933899	756.104492	45.042503
213.605865	729.504089	784.413818	763.906250	62.652214
213.982590	729.355469	781.144531	764.500732	67.862328
214.359283	726.531921	778.320984	760.636963	65.853752
214.735931	722.593933	775.794678	763.980652	77.793495
215.112579	726.383484	769.924805	765.689636	90.273216
215.489197	734.482422	771.708069	757.739197	62.475140
215.865799	739.163513	761.231262	752.909424	62.289593
216.242355	740.872375	756.921692	751.794922	68.056145
216.618896	738.197571	758.927979	752.909485	70.967796
216.995407	736.860046	766.655457	757.887695	70.573448
217.371902	734.036560	771.410828	758.259277	64.811218
217.748367	731.138855	767.472839	756.698914	70.347527
218.124802	726.754883	769.404602	748.228455	50.348682
218.501236	720.810730	764.203430	750.828918	69.177971
218.877609	726.680603	767.175598	761.082703	84.953957
219.253983	730.990234	767.621399	769.404602	104.867996
219.630295	736.414307	768.513000	764.129211	86.342781
220.006592	731.361633	767.398499	757.739197	73.196053
220.382889	731.956055	768.884521	751.720642	53.521278
220.759140	731.733154	773.416992	755.881592	57.932377
221.135391	734.853943	773.714172	752.835144	46.271473
221.511581	736.414307	767.844299	760.562683	76.832268
221.887772	730.247131	762.197266	753.058105	71.395554
222.263931	726.680664	763.014648	761.602844	96.114372
222.640060	721.627991	770.073425	757.739075	74.539703
223.016159	727.572266	773.194153	765.689514	83.550354
223.392212	730.692932	771.336609	758.630859	68.738678
223.768265	734.631042	769.701843	760.191162	72.881485
224.144302	739.014832	768.736023	752.166504	44.250153
224.520294	741.615417	766.358215	756.030212	58.258549
224.896286	742.284180	761.380066	758.705078	85.991814
225.272217	745.553528	764.500671	767.695740	116.863060
225.648148	747.782715	772.302490	767.992920	82.424103
226.024048	749.045715	777.726563	763.088928	48.963730
226.399902	737.008728	783.819397	755.138489	38.729977
226.775772	730.618652	778.395325	757.441895	56.142967
227.151581	730.395752	777.206482	762.568848	68.730171
227.527374	737.974609	774.160095	769.181824	86.242355
227.903137	734.556702	774.308594	767.027039	81.682495
228.278870	734.631042	769.850403	760.116882	72.363152
228.654572	725.120300	775.348877	759.076599	67.603546
229.030273	726.754883	784.562500	758.853699	55.526966
229.405930	725.343201	791.175354	757.516174	48.871216
229.781555	723.708496	789.169189	757.367615	51.418823
230.157181	725.194580	786.494324	757.739075	53.090752
230.532761	719.250305	783.968018	757.887756	59.701508
230.908325	726.606262	784.413818	755.955872	50.771233
231.283859	726.903503	780.104248	752.092102	47.346329
231.659332	735.745544	779.807068	753.132385	39.460373
232.034821	736.340027	779.509949	753.206726	39.070488
232.410263	733.739319	776.686340	756.921875	53.979427
232.785690	726.829163	774.828796	758.705078	66.408661
233.161087	726.086182	766.729797	759.893982	83.181084
233.536469	732.996338	774.977356	759.225281	62.478100
233.911804	735.745544	775.200256	759.522461	60.263821
234.287140	735.671204	777.726563	760.859863	59.894054
234.662430	741.764099	776.166260	759.225281	50.756062
235.037704	744.884766	777.355164	761.751465	51.944851
235.412933	741.689758	781.218811	755.138611	34.022705
235.788162	731.658936	779.212646	759.671082	58.906330
236.163345	727.275085	773.937195	757.664856	65.127296
236.538513	732.253357	771.708069	762.345886	76.271065
236.913635	726.234802	775.348938	759.299500	67.322159
237.288742	724.748718	783.447937	755.287170	52.025314
237.663834	727.052185	782.333313	754.841370	50.268845
238.038879	726.754883	773.639893	754.469788	59.112507
238.413910	728.538147	772.822571	749.640137	47.651043
238.788910	724.228516	773.937195	745.925049	43.647373
239.163879	733.962219	775.720398	742.507080	20.462725
239.538834	739.757996	768.290222	752.166443	43.489235
239.913757	741.689758	763.906311	762.345886	92.976295
240.288651	742.209900	771.485168	764.575012	76.395927
240.663528	741.615417	779.881348	766.655457	65.436905
241.038361	743.324402	791.918396	760.636902	35.626831
241.413177	738.569031	783.670715	757.218994	41.350925
241.787979	733.962219	784.785339	750.308899	32.163864
242.162735	732.401917	779.435547	752.166443	42.022114
242.537476	730.395813	794.370422	756.996094	41.579433
242.912170	735.522644	798.382751	755.287109	31.441984
243.286865	725.863281	805.664368	760.265442	43.109890
243.661514	721.256531	802.097839	752.760925	38.970665
244.036148	714.346375	802.543701	757.070496	48.441513
244.410751	722.148193	802.915222	752.240723	37.258434
244.785339	732.922058	803.286804	763.757629	43.822472
245.159882	738.940613	799.051453	765.243652	43.757565
245.534378	739.014893	794.816162	767.844299	51.664429
245.908890	738.271790	791.175293	762.271667	45.365383
246.283356	728.909668	791.621155	766.135315	59.360172
246.657791	726.086182	802.915222	756.476013	39.555138
247.032196	719.696106	809.379456	758.036377	42.750713
247.406586	720.141907	821.565186	752.092102	31.501837
247.780960	720.290588	824.165833	754.246887	32.689503
248.155289	720.662109	822.977051	751.497742	30.137957
248.529602	725.863281	819.856262	752.537903	28.379375
248.903870	730.024231	817.998718	756.327393	29.898624
249.278122	731.733215	818.593079	754.915710	26.689537
249.652344	732.996399	816.141113	755.138611	26.630932
250.026550	735.671204	813.391846	756.401794	26.673210
250.400711	734.631042	809.453857	760.116882	34.061588
250.774857	731.956116	810.642639	763.534729	40.132175
251.148987	725.640381	808.785156	763.831970	45.933842
251.523071	727.572266	813.317627	766.581238	45.493973
251.897125	734.556702	819.336121	762.494568	32.953594
252.271164	731.956055	817.255676	759.596680	32.404160
252.645187	731.138733	816.438293	760.934082	34.930248
253.019165	726.160461	814.283508	764.277832	43.254711
253.393112	731.287415	820.376282	766.804138	39.866623
253.767044	731.881836	827.509460	756.773254	26.029528
254.140930	734.779602	828.178162	757.813477	24.661917
254.514801	736.488586	824.314392	751.794922	17.428062
254.888657	736.934387	819.410400	754.172607	20.900888
255.262466	728.686829	816.141113	751.943542	26.592995
255.636276	725.640381	817.998596	752.092102	28.640356
256.010010	728.538269	823.274170	755.435730	28.392046
256.383759	731.658936	823.571350	755.510071	25.949852
256.757446	734.259521	830.704407	761.974365	28.736458
257.131134	727.720886	831.596008	767.472839	38.268982
257.504791	730.395752	839.472168	771.262207	37.465893
257.878418	726.680664	837.391602	773.862854	42.617462
258.252014	729.875671	847.793945	771.856689	35.601791
258.625580	730.024231	853.441101	767.472839	30.343184
258.999115	732.476257	867.112732	761.157043	21.302389
259.372650	729.206848	873.874329	760.636963	21.725763
259.746124	730.618652	899.434387	762.345886	18.794003
260.119598	733.293518	920.313477	765.392334	17.163311
260.493042	744.141785	938.963562	769.701843	13.119713
260.866425	742.209900	934.208191	764.946533	11.842102
261.239838	745.033386	931.236023	765.838135	11.173176
261.613159	737.751709	921.056580	765.689636	15.241236
261.986511	734.482422	913.031799	769.330383	19.517269
262.359802	727.200745	894.530457	770.742188	26.021345
262.733063	726.234863	885.316895	759.522461	20.924801
263.106293	726.309082	884.202332	760.116882	21.411808
263.479523	727.349365	886.877258	759.299500	20.027929
263.852692	730.618652	888.214661	762.717468	20.367785
264.225861	737.751709	881.378906	759.968262	15.468207
264.598969	737.677429	885.688477	762.420227	16.716858
264.972076	739.460693	890.963928	761.157043	14.320718
265.345154	734.259521	902.109375	770.370605	21.513920
265.718201	740.649475	903.966980	761.974365	13.057321
266.091217	739.460693	907.310547	766.283997	15.980535
266.464203	740.500977	910.356934	762.866028	13.167069
266.837158	735.894104	922.393982	764.872253	15.537892
267.210114	729.281250	927.818054	766.655518	18.824856
267.583038	724.377258	939.706543	762.866028	17.874378
267.955902	720.736328	941.118164	767.324219	21.139624
268.328766	718.507324	947.285339	766.804016	21.110722
268.701569	718.358704	949.737366	775.274597	24.598593
269.074371	719.696106	959.396790	773.045593	22.256710
269.447144	723.782776	972.102539	776.463379	21.214825
269.819885	730.915833	981.984863	765.392273	13.731857
270.192596	730.544373	980.572998	766.729797	14.472513
270.565277	736.414246	988.671936	764.500671	11.134022
270.937927	731.213074	1000.114563	764.352112	12.323858
271.310577	733.813660	1036.225708	766.432556	10.786242
271.683136	730.618652	1056.881836	765.689514	10.749255
272.055725	733.813660	1076.869263	772.822571	11.371017
272.428284	732.253235	1078.652588	775.200378	12.398159
272.800812	730.841553	1081.476074	768.884583	10.849768
273.173279	730.841553	1078.801147	763.757629	9.459741
273.545776	729.727051	1080.435913	761.602844	9.088962
273.918152	729.281189	1073.674316	764.352051	10.183380
274.290558	734.185120	1064.609375	765.986755	9.624486
274.662964	736.934387	1053.835449	766.506836	9.331760
275.035278	744.587585	1049.451660	768.364441	7.799166
275.407593	741.912659	1057.996460	774.977356	10.460737
275.779907	741.912659	1066.689819	774.680176	10.089231
276.152161	737.231628	1078.206665	777.280762	11.745474
276.524384	731.064453	1083.556519	772.971191	11.888704
276.896606	723.857117	1100.126099	771.410889	12.638239
277.268799	726.754883	1112.534546	771.113586	11.498456
277.640930	732.401855	1129.401245	767.472839	8.834015
278.013031	739.089172	1128.658325	762.791748	6.084305
278.385162	734.779602	1133.413696	762.197266	6.877903
278.757233	733.590820	1134.082397	764.426453	7.699446
279.129272	725.789001	1130.292969	766.135437	9.974299
279.501282	725.120300	1138.614868	771.336609	11.177005
279.873230	722.965515	1154.515747	773.194153	11.639117
280.245178	731.287354	1174.948975	776.686340	10.232796
280.617126	725.417480	1190.701172	770.370605	9.661445
280.988983	727.052063	1203.555542	771.485107	9.324810
281.360870	727.126465	1232.459351	776.909180	9.851469
281.732697	730.470032	1257.424927	773.788513	8.220530
282.104492	727.349426	1283.579590	768.958801	7.480604
282.476288	723.931458	1308.099487	758.407898	5.901802
282.848053	735.522644	1320.805054	761.974365	4.519480
283.219757	740.575195	1323.554321	767.398621	4.601095
283.591461	739.460632	1315.158203	769.256104	5.175542
283.963135	732.179016	1321.771118	770.816406	6.553241
284.334747	728.389587	1330.910278	768.290222	6.622284
284.706360	730.172852	1347.628418	769.850525	6.425996
285.077942	727.275085	1367.095703	763.534851	5.667177
285.449524	728.315247	1379.430054	757.739197	4.519011
285.821014	727.943787	1393.770508	761.454285	5.032916
286.192535	731.807434	1411.157227	768.884583	5.457740
286.563995	736.785828	1446.228149	772.971191	5.100536
286.935425	734.185242	1468.518921	774.903076	5.544868
287.306824	731.064453	1487.763306	773.788574	5.646120
287.678223	727.423645	1474.166016	775.794678	6.477607
288.049561	732.476257	1462.351929	767.175598	4.754144
288.420898	727.869446	1436.048828	758.779480	4.364718
288.792145	728.761047	1424.977661	765.838196	5.325519
289.163452	727.200867	1432.333618	770.296387	6.111689
289.534668	726.160461	1451.280884	771.262268	6.219906
289.905914	724.525879	1481.150391	764.129150	5.234204
290.277039	730.692932	1508.493774	769.256042	4.957967
290.648193	736.860046	1546.759766	777.355042	5.000001
291.019318	737.900330	1590.747070	780.847351	5.035726
291.390381	725.566101	1606.796387	775.348877	5.649236
291.761475	721.776672	1592.010132	774.977356	6.113380
292.132507	717.244141	1570.908203	772.748291	6.501873
292.503510	720.885010	1553.892944	776.537781	6.680941
292.874481	723.634216	1554.858765	779.807068	6.757843
293.245422	722.668274	1553.149902	774.382996	6.227076
293.616364	719.176025	1580.493164	767.770020	5.641824
293.987213	721.107910	1610.511353	768.141602	5.288229
294.358093	726.383362	1655.093140	773.119812	5.032406
294.728943	737.900391	1706.064819	776.612061	3.998460
295.099731	736.785828	1745.519653	771.782410	3.469357
295.470490	737.305969	1773.977539	774.457214	3.583704
295.841248	737.900391	1790.175415	769.999084	3.050409
296.211975	741.318298	1813.952148	766.952698	2.389856
296.582642	743.695984	1860.911621	763.757629	1.795683
296.953308	733.813721	1909.134155	775.274597	3.527623
297.323883	729.058289	1959.362793	774.903076	3.726296
297.694519	724.748718	1980.687500	767.695740	3.419516
298.065063	736.340027	1975.040527	759.299500	1.853513
298.435608	737.974609	1957.133667	758.036377	1.645541
298.806122	743.250183	1912.180542	768.884521	2.192974
299.176575	743.621643	1859.128418	769.181824	2.291351
299.547028	744.290344	1809.345703	771.930908	2.595223
299.917450	743.027161	1784.825562	766.432617	2.246640
300.287872	731.361755	1781.184937	767.324219	3.425573
300.658234	728.166687	1773.457397	760.636963	3.106339
301.028564	727.795166	1778.212524	762.420227	3.296315
301.398865	728.983948	1789.581055	764.797852	3.376768
301.769135	733.293518	1800.280640	772.079590	3.635102
302.139374	730.098450	1802.658325	773.045471	4.004161
302.509583	732.550476	1801.395142	770.742126	3.573171
302.879791	733.888000	1799.463257	773.045410	3.674767
303.249939	735.596985	1789.952515	767.695618	3.044384
303.620087	744.364685	1769.593750	767.695740	2.275692
303.990173	746.073547	1766.547241	767.621399	2.111554
304.360260	743.027161	1755.179077	769.404602	2.606075
304.730286	734.036621	1775.537720	773.342773	3.773990
305.100281	730.395752	1785.271484	772.302490	3.972671
305.470276	733.442139	1799.983398	784.190918	4.758257
305.840179	732.476257	1797.977173	785.751221	4.999992
306.210144	735.819824	1801.098022	787.311584	4.833644
306.579987	736.191406	1817.221680	776.091980	3.690977
306.949890	738.049011	1827.995605	776.314758	3.510791
307.319702	735.448303	1842.410156	780.252930	4.047531
307.689484	729.578430	1860.391479	781.961914	4.632374
308.059265	734.853943	1888.254883	774.160095	3.407848
308.429016	730.321472	1928.526978	765.169434	2.908346
308.798737	739.609314	1979.721802	767.249939	2.228880
309.168396	730.693054	2026.681030	772.525391	3.227834
309.538055	731.287415	2058.854248	776.463379	3.402914
309.907684	720.439209	2069.330811	772.748352	3.877935
310.277313	724.525879	2089.912598	773.491394	3.586201
310.646851	725.417480	2111.906250	772.153870	3.370845
311.016388	733.367859	2136.203125	770.221985	2.627117
311.385895	734.779541	2137.466064	770.296326	2.532054
311.755371	737.677429	2142.444580	772.228210	2.459538
312.124817	729.801270	2142.816162	778.246765	3.428520
312.494232	724.748779	2144.450928	781.293152	3.982833
312.863617	729.875671	2126.246826	785.231140	3.964238
313.232971	739.014893	2119.187744	784.636719	3.305515
313.602295	740.946777	2107.002197	776.834961	2.627140
313.971619	735.225403	2114.209717	766.952698	2.300773
314.340820	729.429871	2124.909180	771.782410	3.034982
314.710083	725.937561	2148.463135	778.989746	3.729436
315.079285	727.943665	2180.487549	786.271423	4.015559
315.448486	732.179016	2205.379150	783.150696	3.459929
315.817596	727.275085	2204.561523	781.144531	3.646513
316.186707	723.931396	2166.221436	781.961731	4.023486
316.555786	722.148132	2112.797607	783.447937	4.407999
316.924866	739.386414	2075.200439	784.488098	3.376345
317.293884	740.278015	2064.352295	786.197083	3.468013
317.662872	742.284180	2065.912842	785.602722	3.272711
318.031830	732.179016	2081.070801	790.506653	4.324115
318.400757	737.603088	2088.426758	789.986511	3.877887
318.769684	736.117004	2105.293213	796.227844	4.390292
319.138550	740.649475	2125.354736	796.970886	4.067393
319.507416	739.609192	2139.695313	801.726318	4.436665
319.876190	738.940613	2156.636475	807.001892	4.800838
320.244995	739.757874	2152.401367	807.893494	4.823270
320.613770	739.460693	2139.398193	809.751038	5.020963
320.982483	739.460693	2119.262451	800.686096	4.437261
321.351166	739.014832	2095.485352	803.509583	4.754601
321.719818	733.144958	2091.993164	808.042053	5.511807
322.088440	731.361633	2093.850586	814.729309	6.118778
322.457062	727.423645	2121.491455	816.512634	6.390578
322.825623	733.144958	2147.720215	818.221497	6.014282
323.194183	732.179016	2188.958008	829.366943	6.671425
323.562653	735.819885	2233.614258	829.738464	6.270459
323.931183	721.479492	2286.517578	837.688904	7.425341
324.299591	722.519714	2340.238525	842.518555	7.417781
324.668060	713.231750	2393.662109	861.094238	8.799085
325.036407	722.445313	2434.528564	870.382080	8.640746
