Jaz Data File
++++++++++++++++++++++++++++++++++++
Date: Fri Jun 04 16:18:22 2021
User: jaz
Dark Spectrum Present: Yes
Reference Spectrum Present: Yes
Processed Spectrum Present: Yes
Spectrometers: JAZA3586
Integration Time (usec): 40000 (JAZA3586)
Spectra Averaged: 10 (JAZA3586)
Boxcar Smoothing: 1 (JAZA3586)
Correct for Electrical Dark: No (JAZA3586)
Strobe/Lamp Enabled: Yes (JAZA3586)
Correct for Detector Non-linearity: No (JAZA3586)
Correct for Stray Light: No (JAZA3586)
Number of Pixels in Processed Spectrum: 2048
>>>>>Begin Processed Spectral Data<<<<<
W	D	R	S	P
191.335022	0.000000	0.000000	0.000000	0.000000
191.713211	302.709259	311.922791	302.337769	-4.032010
192.091385	614.260559	623.697021	605.864441	-88.975273
192.469528	925.737549	936.511475	917.861572	-73.102196
192.847641	941.043945	939.334961	932.870667	478.253571
193.225739	943.644531	952.486572	938.963562	-52.939919
193.603790	944.016113	964.152100	948.474304	22.140415
193.981842	948.622864	970.021973	949.960266	6.249804
194.359863	958.876648	966.455505	960.362610	19.606674
194.737854	973.662903	971.953857	968.090149	326.074066
195.115829	975.297607	974.554504	968.387390	929.913757
195.493774	979.532715	978.195313	974.108704	405.563171
195.871704	981.613220	970.690735	968.981750	115.646477
196.249603	985.922791	974.554504	965.712402	177.778671
196.627457	980.721680	972.399658	961.031433	236.604126
197.005310	977.675293	975.000305	953.972656	886.083923
197.383133	973.142761	974.108704	953.601135	-2023.063354
197.760910	981.613220	970.913757	953.452576	263.196808
198.138687	975.669006	967.867249	961.923035	176.190704
198.516449	972.771179	966.158203	959.471008	201.122314
198.894180	962.220215	971.582336	960.734192	-15.872716
199.271866	966.083984	966.381104	958.728027	-2475.760010
199.649536	964.152161	962.591736	967.570007	-219.033096
200.027191	959.545410	962.071594	965.786804	247.068054
200.404816	956.053040	967.272888	961.179993	45.695385
200.782410	950.777649	981.687683	967.272766	53.364925
201.159988	955.755920	997.811279	973.439941	42.049389
201.537537	953.303955	1012.523193	984.065186	51.944656
201.915070	964.523621	1007.321960	979.755676	35.590294
202.292557	958.282227	998.182678	984.436768	65.549484
202.670029	960.659912	993.501648	981.167480	62.443619
203.047485	948.771484	991.049622	988.077637	92.970398
203.424911	953.303955	989.563660	985.328369	88.319565
203.802292	955.904541	989.340637	988.300476	96.889107
204.179688	961.254333	992.015625	987.483154	85.265671
204.557037	959.768250	994.764832	984.288147	70.063690
204.934357	958.653748	996.176575	981.464600	60.791935
205.311661	961.848694	999.074402	981.910461	53.892239
205.688934	962.294617	996.993958	979.012634	48.179642
206.066177	960.362732	998.405701	980.201477	52.148258
206.443390	955.681641	1001.600647	984.139587	61.974220
206.820587	951.743591	1001.600647	983.247864	63.189198
207.197769	950.331848	991.272644	982.876404	79.491753
207.574921	950.480286	994.319031	972.102539	49.322247
207.952042	943.793152	992.387024	972.548279	59.174389
208.329147	939.112061	993.353027	979.384094	74.246529
208.706223	954.492676	992.535706	998.702820	116.210892
209.083267	968.535889	993.724609	1004.721375	143.657501
209.460297	972.102356	994.021790	1000.486145	129.491440
209.837280	954.715576	986.740051	983.322205	89.327393
210.214264	943.644531	987.334473	984.288086	93.027260
210.591217	945.204895	989.563660	980.201477	78.894402
210.968124	945.873596	985.402649	979.458496	84.962570
211.345016	956.870422	987.260254	978.269592	70.415558
211.721893	954.938660	991.495605	984.659668	81.300575
212.098724	953.824036	997.439758	981.613281	63.713825
212.475555	952.560852	995.210632	982.579285	70.383560
212.852356	950.480408	987.928955	978.492493	74.801529
213.229126	952.858093	983.990906	981.687500	92.601357
213.605865	942.678528	983.247864	973.216980	75.274712
213.982590	943.124451	986.219971	963.557617	47.413666
214.359283	946.319519	983.247864	957.762024	30.985697
214.735931	942.381409	982.727783	961.923035	48.434650
215.112579	937.700378	985.105469	962.591736	52.507774
215.489197	934.876770	988.895020	970.096375	65.199455
215.865799	950.108887	995.507813	968.090149	39.607243
216.242355	955.755859	994.913391	972.845520	43.643356
216.618896	955.012878	990.455261	963.037598	22.641590
216.995407	939.557922	978.715393	963.557617	61.290207
217.371902	937.105957	977.898132	970.467834	81.784996
217.748367	939.409363	982.579163	977.823792	88.984497
218.124802	948.622864	984.511047	980.275879	88.198990
218.501236	951.966492	989.637939	976.709290	65.680504
218.877609	951.297852	990.009460	973.439941	57.197544
219.253983	951.817932	995.804993	975.148926	53.040585
219.630295	947.285339	992.387146	974.182922	59.637486
220.006592	949.068604	994.839111	985.625549	79.870087
220.382889	951.743591	992.164246	985.997070	84.742516
220.759140	955.087158	987.706116	985.997131	94.760765
221.135391	945.427795	989.712219	978.864075	75.503479
221.511581	942.158447	992.015625	977.155090	70.193794
221.887772	938.889160	997.216797	972.102539	56.942783
222.263931	945.873718	998.108459	975.371826	56.472202
222.640060	939.780823	1005.538757	975.223206	53.898262
223.016159	939.037842	1010.888489	982.579102	60.599678
223.392212	940.895447	1009.328125	977.377991	53.311584
223.768265	952.858093	1001.303467	979.978577	55.981575
224.144302	959.916809	992.758728	977.526550	53.619709
224.520294	958.802246	991.569824	979.607117	63.492245
224.896286	952.635193	994.467590	979.384094	63.943027
225.272217	952.040710	993.724609	978.789734	64.171120
225.648148	951.372009	997.439758	983.545166	69.838783
226.024048	950.926208	997.291199	981.241699	65.384445
226.399902	953.824036	999.817383	981.018860	59.127735
226.775772	953.303894	991.123962	977.155090	63.064922
227.151581	948.399902	991.346863	978.566895	70.242439
227.527374	942.158447	984.213806	975.000305	78.091972
227.903137	933.019226	987.185852	980.498779	87.654625
228.278870	942.530029	990.529541	978.715515	75.387199
228.654572	943.718811	999.074402	982.133362	69.395973
229.030273	953.972595	997.737000	974.777405	47.538200
229.405930	950.406067	990.232422	979.161316	72.201561
229.781555	946.542419	990.604004	977.898132	71.163383
230.157181	940.598145	997.142578	972.473938	56.373001
230.532761	937.328857	994.541992	966.306824	50.649151
230.908325	939.483643	988.895020	967.421387	56.541115
231.283859	943.124451	983.545166	974.703064	78.124825
231.659332	947.582581	991.495422	979.012695	71.573860
232.034821	944.387512	996.102234	980.647278	70.114975
232.410263	942.307129	995.656433	980.275818	71.169983
232.785690	948.028503	986.517151	973.514221	66.216194
233.161087	957.464844	984.213806	975.817627	68.611198
233.536469	955.978821	984.065247	967.347168	40.476303
233.911804	957.019104	987.111633	971.730957	48.888721
234.287140	958.579407	999.148682	963.632019	12.454283
234.662430	965.861084	1005.687256	975.891907	25.186510
235.037704	955.384338	1002.566650	976.709290	45.196918
235.412933	951.074768	990.901123	983.322266	80.970245
235.788162	940.449524	984.956848	979.681335	88.146866
236.163345	944.090393	994.096130	982.504883	76.820168
236.538513	943.495911	1003.978333	985.551270	69.533195
236.913635	949.737488	1009.551086	988.969238	65.590019
237.288742	943.718933	1006.281738	980.201477	58.313473
237.663834	935.396973	1004.869934	971.210938	51.550941
238.038879	934.728271	1003.532532	971.433777	53.347721
238.413910	935.025452	1013.266174	975.000305	51.092133
238.788910	941.861328	1008.956543	977.377930	52.934628
239.163879	935.248352	1011.185730	973.662781	50.586983
239.538834	939.260681	999.445862	977.229309	63.086342
239.913757	935.917053	1003.978333	976.189148	59.170345
240.288651	949.663086	1002.640930	981.687561	60.448807
240.663528	954.864258	1010.442688	983.173523	50.935703
241.038361	959.991150	1009.551086	985.253967	50.974274
241.413177	955.161438	1004.795715	983.693665	57.484924
241.787979	953.452454	1000.709167	978.121033	52.201214
242.162735	954.789856	996.845398	978.641113	56.713707
242.537476	952.932373	1002.417969	970.690735	35.885921
242.912170	953.601074	1010.888489	975.520447	38.262108
243.286865	954.195557	1017.352783	979.904297	40.705936
243.661514	955.755859	1018.393066	983.842285	44.839844
244.036148	951.594910	1016.758484	983.322205	48.688698
244.410751	952.560852	1018.838928	981.687561	43.946220
244.785339	947.805481	1021.885315	984.213867	49.147499
245.159882	951.669250	1014.529297	981.316101	47.163265
245.534378	944.684875	1009.179504	980.647278	55.760307
245.908890	950.183167	1006.058838	985.031189	62.367077
246.283356	946.913879	1007.842102	987.334656	66.341629
246.657791	945.650696	1010.591309	987.557434	64.530861
247.032196	938.740540	1018.170105	987.780457	61.740131
247.406586	931.013123	1030.132935	989.563660	59.070469
247.780960	936.139954	1043.581665	985.848450	46.265549
248.155289	939.929382	1048.634277	983.545105	40.123055
248.529602	944.090332	1046.405151	976.040527	31.227339
248.903870	940.895325	1037.711792	978.195313	38.526493
249.278122	938.146179	1027.755249	974.034363	40.049721
249.652344	946.096497	1018.467468	983.545105	51.745346
250.026550	953.675476	1008.882385	983.768066	54.508739
250.400711	960.139709	1010.591309	982.950684	45.213581
250.774857	949.068665	1017.947266	976.189148	39.374325
251.148987	933.465088	1023.371399	976.337708	47.685886
251.523071	925.737610	1020.919434	974.480164	51.209938
251.897125	937.626038	1020.845032	983.247864	54.821411
252.271164	945.650696	1019.284668	984.659668	52.976868
252.645187	950.703308	1023.222839	991.867004	56.762222
253.019165	939.632263	1026.120605	982.950684	50.085850
253.393112	942.678650	1034.814087	986.665833	47.741871
253.767044	951.223450	1036.968750	984.882568	39.254768
254.140930	957.093445	1030.950317	991.124023	46.076385
254.514801	951.297791	1028.646851	986.740051	45.821190
254.888657	942.158508	1032.510620	980.498718	42.434216
255.262466	941.564148	1041.129761	979.755676	38.358150
255.636276	942.009827	1040.832520	976.932190	35.338406
256.010010	945.204895	1040.758179	986.888855	43.623787
256.383759	944.238953	1037.043091	988.820618	48.038445
256.757446	952.337891	1043.730347	995.284973	46.991936
257.131134	948.325623	1045.142090	993.278809	46.431343
257.504791	948.399902	1056.436035	990.380920	38.858311
257.878418	945.130615	1054.652832	989.266357	40.298439
258.252014	952.040710	1057.253418	989.786438	35.875637
258.625580	957.687805	1056.956177	988.151855	30.688576
258.999115	954.344177	1066.244141	989.712219	31.606840
259.372650	953.303894	1078.132446	981.539001	22.619110
259.746124	949.514465	1091.729858	985.477051	25.287407
260.119598	957.093323	1097.896973	989.266418	22.849617
260.493042	952.115051	1107.407715	993.798828	26.842077
260.866425	953.006653	1109.711182	992.907227	25.462297
261.239838	949.811707	1114.020752	984.213867	20.950222
261.613159	944.610535	1108.299438	983.024963	23.467949
261.986511	936.808777	1103.023926	976.263428	23.737097
262.359802	935.248352	1095.593628	980.572998	28.266905
262.733063	943.867493	1088.311890	982.207703	26.543230
263.106293	951.520691	1089.203613	979.161316	20.075565
263.479523	948.919983	1095.370605	980.870300	21.816444
263.852692	940.523743	1094.776245	977.823914	24.181242
264.225861	938.220398	1090.466797	988.894958	33.284573
264.598969	947.731140	1081.773438	987.408875	29.600906
264.972076	949.811707	1083.630981	994.318909	33.259186
265.345154	948.771484	1081.104614	992.015625	32.678242
265.718201	944.164734	1089.277954	985.699890	28.622585
266.091217	949.143005	1100.348999	986.888672	24.963076
266.464203	948.399963	1106.739136	989.266418	25.809441
266.837158	945.502136	1116.695557	990.380859	26.215216
267.210114	938.666260	1120.113525	988.523376	27.477468
267.583038	943.793152	1134.676758	992.387024	25.457331
267.955902	948.622803	1136.757324	995.507813	24.921003
268.328766	956.647461	1131.779053	994.467590	21.595264
268.701569	952.263611	1130.292969	997.365417	25.333916
269.074371	947.879700	1143.964722	996.696594	24.895779
269.447144	949.440186	1153.698364	995.879395	22.735544
269.819885	950.554749	1159.494019	986.963074	17.425314
270.192596	948.177063	1156.893433	984.139648	17.230362
270.565277	940.449524	1168.410278	980.721680	17.666267
270.937927	942.307129	1185.128418	984.362549	17.319494
271.310577	942.604309	1205.561646	990.901123	18.366787
271.683136	948.548523	1221.165161	989.117859	14.881460
272.055725	949.960266	1232.161987	986.591492	12.980511
272.428284	952.263672	1236.917480	983.693665	11.041480
272.800812	951.817871	1244.273315	991.123962	13.440027
273.173279	947.582703	1239.740845	987.483093	13.657121
273.545776	953.675476	1235.802856	985.625488	11.324677
273.918152	952.189453	1229.338501	986.814453	12.493278
274.290558	944.684814	1225.028931	991.198303	16.591570
274.662964	938.666321	1226.812134	993.724609	19.107786
275.035278	939.112122	1221.759644	991.644104	18.585686
275.407593	940.821045	1228.149658	988.969238	16.757187
275.779907	948.697205	1232.607910	991.198242	14.969861
276.152161	947.434021	1244.942017	986.665833	13.186810
276.524384	959.248108	1255.270142	981.093079	7.379508
276.896606	948.177063	1259.431152	982.950745	11.172120
277.268799	948.994324	1266.861450	978.343994	9.233315
277.640930	946.690918	1262.254517	979.086914	10.266075
278.013031	942.827148	1269.313354	978.864014	11.037791
278.385162	942.752869	1267.752930	982.356262	12.185658
278.757233	945.799316	1281.870483	990.009460	13.154995
279.129272	952.040771	1280.607300	986.442871	10.470361
279.501282	953.452454	1287.889038	985.774170	9.664528
279.873230	943.644531	1300.297729	980.795959	10.416681
280.245178	944.981995	1317.164429	979.532715	9.283276
280.617126	941.489746	1335.071289	987.260254	11.629231
280.988983	945.576416	1340.049683	992.758606	11.960808
281.360870	949.365906	1364.792358	995.359314	11.071372
281.732697	946.616699	1386.340210	991.792725	10.273734
282.104492	947.582703	1414.203735	988.151855	8.694240
282.476288	945.947937	1431.070435	986.814392	8.423945
282.848053	946.542297	1431.962036	992.387146	9.444372
283.219757	947.582520	1432.853638	986.888733	8.099846
283.591461	944.238953	1426.835083	991.272644	9.745974
283.963135	951.372009	1433.596680	988.597717	7.719578
284.334747	951.669189	1433.893921	1002.046570	10.446868
284.706360	948.028381	1443.553223	1000.411865	10.571314
285.077942	947.359680	1460.717163	997.216858	9.711980
285.449524	943.273132	1486.203125	990.083801	8.621861
285.821014	947.434021	1500.171875	986.591553	7.084286
286.192535	944.238953	1528.555664	995.656494	8.799602
286.563995	944.907715	1542.004395	994.987793	8.387264
286.935425	949.960266	1561.694702	994.170471	7.227026
287.306824	950.703308	1560.654297	980.944519	4.957974
287.678223	949.365906	1551.515015	980.350098	5.145601
288.049561	940.523865	1535.465820	982.207703	7.006371
288.420898	934.059570	1525.880737	977.600891	7.357175
288.792145	936.214294	1527.812500	978.864014	7.209238
289.163452	940.077942	1538.512207	975.223206	5.872869
289.534668	941.861267	1550.549194	988.003235	7.580562
289.905914	935.471252	1582.127808	990.381042	8.491338
290.277039	933.910889	1609.248413	998.925842	9.627031
290.648193	939.780823	1636.294434	1003.086731	9.088969
291.019318	945.873718	1641.569946	1004.870056	8.480186
291.390381	950.108887	1657.990845	1000.337585	7.095632
291.761475	951.743591	1652.864136	991.644104	5.690963
292.132507	954.418457	1653.458496	983.322205	4.134777
292.503510	957.390564	1632.876587	983.024902	3.794947
292.874481	956.721863	1629.161499	985.179688	4.232027
293.245422	957.687805	1626.560913	988.523376	4.610078
293.616364	952.189453	1642.907593	996.696716	6.443622
293.987213	954.567078	1657.025024	1007.173401	7.488893
294.358093	941.935608	1692.690308	1010.071228	9.075617
294.728943	944.684814	1731.104858	1004.052734	7.549136
295.099731	941.043945	1775.017700	995.136414	6.486112
295.470490	947.433899	1808.602539	999.817444	6.082844
295.841248	939.780762	1822.497070	998.925781	6.700343
296.211975	939.855164	1834.905640	1005.538757	7.338535
296.582642	943.198730	1861.654785	1005.835938	6.819837
296.953308	946.839600	1899.697754	1004.721375	6.074543
297.323883	950.703369	1949.629272	995.062012	4.440634
297.694519	953.601135	1959.585571	991.198242	3.737345
298.065063	954.195557	1963.598022	997.885559	4.328303
298.435608	946.988098	1941.455688	1002.715149	5.603707
298.806122	939.483582	1913.815063	1006.133118	6.840540
299.176575	938.369080	1872.205688	994.319031	5.991407
299.547028	936.288574	1846.274048	997.439758	6.720017
299.917450	940.821045	1821.456909	991.644104	5.771177
300.287872	943.495911	1814.100952	994.170410	5.820607
300.658234	949.440186	1806.819214	989.786560	4.705781
301.028564	955.904541	1813.432129	990.380920	4.020440
301.398865	950.703308	1820.639648	988.894958	4.390166
301.769135	945.502136	1812.466309	986.888733	4.773738
302.139374	942.901550	1813.580933	989.415039	5.342206
302.509583	942.307129	1814.249512	991.792786	5.675335
302.879791	951.743469	1815.661255	988.226257	4.222947
303.249939	952.189392	1817.147339	987.185974	4.046044
303.620087	951.817871	1814.843750	983.173645	3.633237
303.990173	943.570313	1811.500366	991.792725	5.556025
304.360260	938.517761	1808.676758	995.879395	6.592086
304.730286	946.022278	1810.608765	1012.820313	7.726009
305.100281	949.960266	1819.599121	1010.145508	6.920717
305.470276	947.433899	1824.503296	1009.922546	7.124710
305.840179	944.981934	1834.682617	997.811279	5.937879
306.210144	935.768372	1849.171753	1001.080566	7.150422
306.579987	937.774597	1861.060181	995.953796	6.301322
306.949890	943.347351	1866.855835	1000.932068	6.235429
307.319702	951.149231	1870.125122	994.987793	4.770371
307.689484	954.864441	1895.759766	1001.452087	4.951416
308.059265	950.851990	1914.261108	1001.080566	5.213629
308.429016	948.622803	1952.898438	1010.517029	6.163072
308.798737	941.712646	1978.087036	1005.390137	6.144256
309.168396	942.009949	2013.306519	1001.006287	5.507003
309.538055	936.808777	2036.563477	1003.458191	6.060390
309.907684	941.638367	2059.820068	1003.161072	5.502031
310.277313	935.619812	2080.922119	1008.882324	6.396784
310.646851	946.765320	2104.996094	995.805115	4.234026
311.016388	944.610535	2121.194092	1000.114685	4.717400
311.385895	946.988220	2124.834961	992.090027	3.829175
311.755371	943.495911	2118.816406	993.650330	4.267297
312.124817	941.638367	2125.503418	993.204529	4.355747
312.494232	946.839539	2122.085449	996.845276	4.254917
312.863617	943.198730	2120.896729	1007.842102	5.488960
313.232971	947.359680	2105.293213	1001.303406	4.658620
313.602295	947.136719	2111.757568	1006.207458	5.072101
313.971619	957.167664	2120.822510	1001.823547	3.837554
314.340820	957.241943	2122.383057	1010.071289	4.534159
314.710083	951.297791	2133.454346	1008.362244	4.827149
315.079285	946.319397	2145.937012	1003.309753	4.750710
315.448486	945.576416	2182.270752	1005.761719	4.866627
315.817596	948.474182	2189.180908	1009.996887	4.958682
316.186707	943.941711	2180.710205	1018.244446	6.007813
316.555786	950.257507	2142.741943	1014.157898	5.358593
316.924866	949.960266	2113.243896	1013.489075	5.461162
317.293884	952.337952	2093.702148	1009.922546	5.045242
317.662872	943.198730	2086.494873	1007.173340	5.595629
318.031830	938.517578	2089.095459	1005.315857	5.805629
318.400757	938.889160	2103.064453	1006.504639	5.808015
318.769684	944.016113	2119.039307	1015.941162	6.121160
319.138550	945.799316	2142.593018	1022.108215	6.376112
319.507416	944.833435	2152.921143	1026.417847	6.753187
319.876190	942.901550	2158.419922	1022.331238	6.534635
320.244995	947.136780	2165.032959	1029.018433	6.723204
320.613770	954.567078	2154.853271	1031.693359	6.425658
320.982483	956.721863	2146.754150	1031.173218	6.256247
321.351166	954.418457	2119.410889	1031.247437	6.594805
321.719818	949.068604	2111.237549	1028.349731	6.821825
322.088440	949.142883	2119.262451	1034.442505	7.289821
322.457062	948.102722	2138.729736	1030.430176	6.914630
322.825623	949.068665	2164.884033	1043.358765	7.755297
323.194183	948.474304	2192.450439	1050.120361	8.171062
323.562653	948.399963	2229.676025	1058.962402	8.629087
