Jaz Data File
++++++++++++++++++++++++++++++++++++
Date: Fri Jun 04 16:41:27 2021
User: jaz
Dark Spectrum Present: Yes
Reference Spectrum Present: Yes
Processed Spectrum Present: Yes
Spectrometers: JAZA3586
Integration Time (usec): 24400 (JAZA3586)
Spectra Averaged: 10 (JAZA3586)
Boxcar Smoothing: 1 (JAZA3586)
Correct for Electrical Dark: No (JAZA3586)
Strobe/Lamp Enabled: Yes (JAZA3586)
Correct for Detector Non-linearity: No (JAZA3586)
Correct for Stray Light: No (JAZA3586)
Number of Pixels in Processed Spectrum: 2048
>>>>>Begin Processed Spectral Data<<<<<
W	D	R	S	P
191.335022	0.000000	0.000000	0.000000	0.000000
191.713211	234.499390	230.487045	236.134048	-40.740742
192.091385	471.747955	472.490997	468.330078	-459.984406
192.469528	709.665283	712.117249	708.699402	-39.392128
192.847641	718.878906	723.559875	718.284424	-12.699986
193.225739	727.126465	723.336975	729.132629	-52.940228
193.603790	728.761047	731.584534	736.860107	286.846100
193.981842	720.587830	734.779602	744.736267	170.158005
194.359863	726.383362	741.689758	757.590515	203.883087
194.737854	739.237793	743.398682	763.460449	582.151001
195.115829	760.636902	748.971436	760.191101	3.821543
195.493774	758.259277	751.200500	751.720642	92.631279
195.871704	756.401672	756.847473	750.308899	-1366.703125
196.249603	754.989929	757.219055	754.098328	-39.997810
196.627457	752.909485	755.807312	765.095154	420.510559
197.005310	756.847473	745.702148	756.476074	3.332329
197.383133	753.875427	743.695984	747.411072	63.504017
197.760910	758.036377	750.754700	745.776367	168.367935
198.138687	750.754700	751.794922	753.949707	307.146637
198.516449	748.302673	750.828918	755.138489	270.591919
198.894180	752.983704	749.863098	750.828918	69.050224
199.271866	760.191162	750.531799	746.668030	140.000259
199.649536	759.596741	749.417236	751.497742	79.561821
200.027191	750.234619	743.547363	744.513367	85.554565
200.404816	738.643372	742.581360	746.742371	205.663361
200.782410	736.488586	750.531799	746.296570	69.841446
201.159988	741.169617	762.494568	757.516296	76.655182
201.537537	737.677429	777.429382	761.379944	59.626038
201.915070	738.866211	781.738953	759.299500	47.660328
202.292557	733.665039	778.618164	758.556458	55.371941
202.670029	742.209961	774.903076	749.417236	22.045238
203.047485	743.324463	772.599670	748.154053	16.497202
203.424911	736.191406	769.256104	738.494812	6.966360
203.802292	728.463867	765.615234	741.466858	35.000034
204.179688	718.432922	760.711243	740.352356	51.845566
204.557037	725.937500	768.587341	738.717712	29.965439
204.934357	733.590759	771.782410	735.374023	4.669251
205.311661	738.866272	775.720398	740.798157	5.241977
205.688934	733.665039	769.924805	748.748535	41.598438
206.066177	727.052063	773.416992	759.225159	69.391014
206.443390	723.485657	770.221985	756.847473	71.383049
206.820587	725.789001	765.392334	756.698914	78.048767
207.197769	721.256531	758.482178	757.664856	97.804413
207.574921	725.194580	762.345886	758.927979	90.800034
207.952042	722.222473	765.169434	753.578186	73.010323
208.329147	726.383362	765.838135	742.804260	41.619549
208.706223	732.327637	776.463379	745.999268	30.976324
209.083267	738.048889	783.522156	747.411072	20.588322
209.460297	737.677429	787.237305	754.767090	34.482857
209.837280	731.213074	773.491394	751.497742	47.978889
210.214264	723.114014	766.506836	748.674316	58.904449
210.591217	722.148132	763.163269	750.754700	69.746368
210.968124	719.918945	761.305664	752.612305	78.994812
211.345016	726.606262	768.290039	761.825867	84.492355
211.721893	729.132568	771.187927	758.705078	70.318054
212.098724	733.590759	773.417053	750.531738	42.537170
212.475555	738.717590	767.472839	751.349121	43.927738
212.852356	736.191345	760.859863	746.147949	40.361580
213.229126	734.482361	763.980530	750.680420	54.912083
213.605865	733.887939	763.906250	742.581360	28.960392
213.982590	737.603088	767.324219	741.243958	12.250103
214.359283	740.278015	762.940369	738.717590	-6.885537
214.735931	731.436035	761.157043	749.417236	60.499969
215.112579	738.866211	756.996155	756.401672	96.720993
215.489197	730.024231	761.454346	759.893982	95.035446
215.865799	734.556702	765.838196	747.931213	42.755348
216.242355	732.699158	772.674072	747.559753	37.174805
216.618896	747.262451	774.977356	752.017883	17.158392
216.995407	747.633972	778.172424	757.887756	33.576633
217.371902	740.129395	773.491394	756.996094	50.556622
217.748367	725.417419	761.157043	754.098328	80.249611
218.124802	717.764221	758.036377	760.265442	105.535004
218.501236	719.027405	760.562683	755.510071	87.835373
218.877609	725.343201	771.782410	750.977539	55.199776
219.253983	732.253357	769.479004	739.906494	20.558775
219.630295	735.596924	766.729736	740.500793	15.751451
220.006592	733.293518	766.283997	748.005432	44.594425
220.382889	732.104675	764.352051	746.296570	44.009457
220.759140	724.971619	766.729797	747.559753	54.092720
221.135391	724.005676	766.804016	742.507141	43.229397
221.511581	723.634094	768.513000	750.085938	58.940479
221.887772	725.937561	770.816406	752.537903	59.271450
222.263931	727.646545	772.228210	754.023987	59.166569
222.640060	727.795166	778.395325	751.200500	46.255455
223.016159	729.281189	776.909241	749.640137	42.745708
223.392212	730.767273	778.692566	748.079773	36.123932
223.768265	733.665039	779.584167	747.856873	30.906147
224.144302	734.556824	776.983582	751.349121	39.579498
224.520294	735.745605	769.404724	754.469788	55.628853
224.896286	734.853943	759.893860	755.881531	83.976265
225.272217	743.250061	763.014648	754.098328	54.887394
225.648148	744.216064	760.859863	758.036377	83.035805
226.024048	745.702148	766.729736	754.618469	42.402966
226.399902	734.036560	765.392334	758.259277	77.251221
226.775772	729.132568	763.683350	756.476013	79.139877
227.151581	726.680603	758.630798	759.596680	103.023087
227.527374	734.333740	762.717468	749.863098	54.712185
227.903137	738.569031	770.816345	741.392578	8.755915
228.278870	743.695984	773.119812	737.157288	-22.222452
228.654572	737.082947	774.085693	743.101501	16.265156
229.030273	736.637207	775.348877	744.438965	20.153503
229.405930	729.132629	775.423157	742.804382	29.534666
229.781555	729.578430	777.206482	743.770325	29.797344
230.157181	725.640381	776.686340	752.612305	52.838509
230.532761	727.795166	776.463562	766.209656	78.931076
230.908325	735.374023	771.187988	766.952637	88.174019
231.283859	740.278015	769.404724	759.671082	66.581726
231.659332	741.021057	776.017578	753.503906	35.668827
232.034821	731.361633	777.577942	755.361511	51.929455
232.410263	717.987122	777.949463	756.921814	64.931908
232.785690	713.528992	770.147766	754.544128	72.440880
233.161087	716.649719	770.296387	748.599915	59.556721
233.536469	722.593994	765.763855	749.937317	63.338917
233.911804	720.810730	768.141602	750.234558	62.166252
234.287140	720.141907	763.609070	756.698914	84.102585
234.662430	724.154297	770.370605	748.674255	53.054775
235.037704	727.497864	767.472839	754.841309	68.401405
235.412933	727.795166	770.519226	749.863098	51.652237
235.788162	722.222412	771.782410	762.940369	82.158913
236.163345	726.532043	773.045471	748.674255	47.603912
236.538513	732.253357	775.943359	754.692688	51.360332
236.913635	730.767273	777.726563	746.965271	34.493702
237.288742	730.024231	781.813232	752.240723	42.898090
237.663834	727.423645	790.135071	748.228333	33.175274
238.038879	732.476257	792.810059	746.222229	22.783201
238.413910	728.612488	794.890442	748.451233	29.932646
238.788910	725.714661	793.404480	746.073547	30.076735
239.163879	725.194519	788.351868	753.132324	44.235241
239.538834	723.708496	781.813232	757.739075	58.567650
239.913757	726.680603	776.983582	762.791748	71.787292
240.288651	728.389587	774.011414	761.900085	73.452774
240.663528	729.281250	775.200256	759.819580	66.504768
241.038361	726.234863	768.736023	759.968262	79.370537
241.413177	728.463867	777.577942	756.847473	57.791183
241.787979	729.801331	781.441711	763.014648	64.316559
242.162735	725.714661	789.615051	759.150879	52.325531
242.537476	726.531982	785.008240	752.092102	43.710251
242.912170	727.720886	793.553040	748.525635	31.602716
243.286865	731.658936	796.525146	742.358459	16.494757
243.661514	725.714661	806.927490	745.999329	24.977171
244.036148	725.789001	797.342468	745.924988	28.141174
244.410751	726.606262	796.153625	755.212891	41.132584
244.785339	726.011902	791.175476	756.624695	46.978382
245.159882	720.885010	795.856445	756.178772	47.076279
245.534378	719.621887	795.707825	753.578308	44.629036
245.908890	722.816895	797.788330	748.897156	34.786930
246.283356	721.033630	808.042053	742.135559	24.252743
246.657791	726.160461	812.425964	737.157410	12.747793
247.032196	726.680603	819.856262	742.432800	16.905914
247.406586	728.835388	828.252441	747.411133	18.684666
247.780960	725.640381	836.722961	750.085938	22.006651
248.155289	723.039795	834.791016	745.479187	20.079773
248.529602	731.658875	821.193665	741.912659	11.452291
248.903870	733.665039	815.249451	745.999329	15.118439
249.278122	736.934387	814.877930	754.767090	22.879000
249.652344	732.922058	817.552734	750.160339	20.368834
250.026550	735.745544	813.317566	736.265686	0.670527
250.400711	736.711426	805.738708	733.367859	-4.843834
250.774857	736.934387	804.401184	738.569031	2.422886
251.148987	719.547546	800.537415	744.884766	31.284431
251.523071	713.008972	803.361023	739.312012	29.111723
251.897125	714.197754	804.772766	739.906433	28.383854
252.271164	728.984070	816.512512	740.203674	12.818238
252.645187	735.448303	829.887024	745.256287	10.385553
253.019165	732.996338	824.908875	743.695862	11.640985
253.393112	729.875671	822.754089	758.779297	31.119852
253.767044	727.572266	820.673523	757.516296	32.162865
254.140930	724.080017	825.057434	756.401672	32.008797
254.514801	730.470032	827.212219	743.844543	13.824901
254.888657	732.847717	817.998718	744.067566	13.176414
255.262466	735.522644	818.518799	745.330566	11.817322
255.636276	730.470032	811.831543	754.098328	29.041122
256.010010	729.429871	818.295898	752.092102	25.501570
256.383759	731.881836	818.890320	751.200500	22.203196
256.757446	730.024231	831.075989	742.952881	12.794087
257.131134	731.213074	834.419617	743.621643	12.023046
257.504791	726.829285	839.695068	747.931152	18.696426
257.878418	726.457703	843.038757	757.367676	26.513720
258.252014	718.061462	845.862122	761.380066	33.895447
258.625580	726.680664	856.115906	762.345886	27.554491
258.999115	732.699219	861.242859	754.246887	16.762920
259.372650	727.943787	875.583252	756.773254	19.526939
259.746124	723.039795	894.307556	753.355286	17.700640
260.119598	719.547546	918.084412	757.367615	19.049393
260.493042	727.572266	938.889160	762.717346	16.631458
260.866425	732.996399	945.502136	764.352051	14.755202
261.239838	730.395691	941.935547	761.825867	14.857803
261.613159	735.596924	924.994629	753.132385	9.258539
261.986511	724.674500	906.195984	752.315125	15.227192
262.359802	728.538269	900.177490	752.686584	14.069229
262.733063	729.132629	894.976257	752.686523	14.202472
263.106293	738.049011	898.394226	755.510071	10.889667
263.479523	733.813660	890.072266	744.067444	6.562060
263.852692	727.349304	887.025879	742.581360	9.539318
264.225861	725.343201	886.951660	740.946777	9.655173
264.598969	719.101746	889.552246	751.720642	19.136873
264.972076	714.049133	889.403625	752.983704	22.203350
265.345154	717.095520	888.660461	753.281006	21.091421
265.718201	725.640381	892.747131	755.807312	18.052490
266.091217	737.603210	907.459167	762.345947	14.566894
266.464203	730.024231	918.901672	762.791748	17.348560
266.837158	727.349304	937.923279	763.683411	17.254795
267.210114	719.696106	945.725098	755.807312	15.976360
267.583038	723.634277	954.269836	750.457520	11.630141
267.955902	725.045959	952.635193	746.445129	9.402540
268.328766	730.618652	946.542419	750.085999	9.015842
268.701569	730.098572	950.034668	750.531799	9.290529
269.074371	729.578430	953.526855	749.714539	8.991405
269.447144	723.262695	974.331543	746.073669	9.085546
269.819885	728.538269	980.721619	755.584412	10.724793
270.192596	727.943848	993.501648	757.962097	11.303847
270.565277	738.271790	993.724609	762.717468	9.569548
270.937927	733.590820	1008.362244	756.996094	8.518088
271.310577	731.510254	1033.476563	760.859863	9.719498
271.683136	723.857117	1066.689819	758.853699	10.208064
272.055725	724.377197	1092.844360	761.974426	10.203685
272.428284	727.349365	1101.314941	751.200500	6.377896
272.800812	741.095276	1098.565796	756.996094	4.448148
273.173279	749.268555	1089.500854	753.132324	1.135627
273.545776	752.240723	1071.519531	753.429626	0.372372
273.918152	745.999329	1069.141846	744.290344	-0.528864
274.290558	734.779602	1064.757935	742.432800	2.319303
274.662964	735.448425	1064.015015	746.147949	3.256425
275.035278	731.956055	1059.705444	748.079834	4.919545
275.407593	731.584656	1058.145142	746.222229	4.482347
275.779907	728.686768	1068.844727	747.113953	5.417243
276.152161	731.584656	1076.274902	743.175842	3.362783
276.524384	739.832214	1099.085815	747.559753	2.150998
276.896606	730.990234	1109.339722	748.228455	4.556163
277.268799	735.076843	1120.039185	756.104492	5.462261
277.640930	724.525818	1125.017456	757.962097	8.348808
278.013031	730.618652	1133.339355	748.079834	4.335804
278.385162	724.154297	1138.911987	748.377014	5.840209
278.757233	727.126465	1140.992554	741.689758	3.518842
279.129272	729.281250	1146.119507	755.955872	6.399274
279.501282	732.253235	1151.617798	754.692688	5.350822
279.873230	734.408020	1158.230835	758.407898	5.662715
280.245178	737.751709	1179.258423	760.265442	5.099296
280.617126	732.476257	1204.595703	756.253113	5.036195
280.988983	727.869446	1222.874146	759.225159	6.334427
281.360870	725.789001	1242.861694	750.754700	4.828276
281.732697	726.754883	1269.313354	759.671082	6.066848
282.104492	730.990234	1301.486450	760.488342	5.170605
282.476288	726.680664	1324.817505	762.345947	5.962730
282.848053	729.058289	1334.848511	758.705078	4.893904
283.219757	730.915833	1337.151733	759.522461	4.718729
283.591461	730.024231	1331.579102	760.339783	5.039532
283.963135	730.098633	1329.498535	756.401672	4.388229
284.334747	729.801331	1336.334351	753.578186	3.920125
284.706360	736.414307	1349.040161	751.051941	2.389327
285.077942	730.767273	1372.371094	754.915710	3.763762
285.449524	732.401855	1395.182251	759.373779	4.069511
285.821014	731.361633	1417.101563	761.082764	4.334169
286.192535	742.135559	1439.912476	756.921814	2.119052
286.563995	742.432800	1468.370483	748.525574	0.839297
286.935425	738.123230	1486.128784	751.126221	1.738355
287.306824	728.166687	1493.261719	748.079834	2.602702
287.678223	729.801270	1479.218750	752.166443	2.984341
288.049561	734.631042	1464.803833	746.816650	1.668866
288.420898	735.745544	1444.147827	748.005432	1.730639
288.792145	731.287354	1436.940308	747.262451	2.263875
289.163452	728.909668	1443.033203	752.612305	3.319123
289.534668	729.355469	1470.302246	756.698914	3.690339
289.905914	721.702332	1494.376343	759.819641	4.933168
290.277039	722.519714	1528.332642	759.522461	4.591977
290.648193	724.748718	1561.917603	758.705078	4.056094
291.019318	729.875671	1598.102905	755.064270	2.901153
291.390381	732.773438	1625.372070	752.760803	2.239233
291.761475	734.110840	1621.359741	752.909485	2.118757
292.132507	734.408020	1616.975952	754.544128	2.281536
292.503510	733.962219	1595.205078	758.853699	2.890181
292.874481	731.584656	1584.059570	763.757629	3.774067
293.245422	731.807556	1578.264160	764.946533	3.915024
293.616364	731.064453	1598.697266	760.636963	3.408413
293.987213	733.813660	1638.598022	761.157043	3.022089
294.358093	734.110840	1685.111450	761.379883	2.867405
294.728943	737.751770	1731.625000	770.221924	3.267032
295.099731	735.894226	1773.308716	766.804016	2.979502
295.470490	736.265686	1805.184692	765.169434	2.704017
295.841248	728.166687	1834.014038	760.488342	2.922795
296.211975	726.903564	1849.320313	764.723633	3.369521
296.582642	725.566101	1885.134277	769.924805	3.825450
296.953308	725.789001	1923.177368	765.392334	3.307476
297.323883	724.525818	1980.464844	756.847473	2.573505
297.694519	727.497864	2006.842163	750.457458	1.794638
298.065063	731.138855	2010.260132	759.819580	2.242221
298.435608	725.714661	1982.545288	764.500671	3.086017
298.806122	722.073792	1934.545776	762.345947	3.321492
299.176575	720.587830	1872.131348	754.692688	2.961665
299.547028	730.990173	1821.977173	753.355286	2.049989
299.917450	738.197571	1796.862915	756.773254	1.754632
300.287872	743.101501	1790.249878	755.212891	1.156607
300.658234	743.993164	1794.187866	761.528625	1.669734
301.028564	741.987000	1788.466431	768.587341	2.541888
301.398865	732.773438	1784.379883	767.101257	3.264322
301.769135	727.126465	1780.738892	760.414063	3.159378
302.139374	720.513489	1796.119751	752.909485	3.011883
302.509583	721.628113	1804.813110	755.138611	3.093700
302.879791	721.182190	1803.847046	755.064270	3.129508
303.249939	724.600098	1795.599487	754.841309	2.823644
303.620087	729.281250	1791.290039	754.692688	2.392771
303.990173	730.544434	1784.528320	752.835205	2.114906
304.360260	730.841553	1781.407837	751.200500	1.937902
304.730286	731.436035	1792.924683	759.448059	2.638938
305.100281	731.287354	1797.085571	762.717468	2.948974
305.470276	724.228699	1808.305298	758.556458	3.166543
305.840179	721.330811	1806.967773	750.160217	2.655529
306.210144	719.993408	1822.794312	748.897156	2.620940
306.579987	721.107910	1825.023438	755.881531	3.150026
306.949890	724.377197	1833.568237	758.110657	3.041267
307.319702	727.572266	1849.097534	756.550293	2.583805
307.689484	732.327637	1863.214966	758.928040	2.352171
308.059265	735.299805	1895.388062	764.946533	2.555558
308.429016	732.922058	1931.202026	772.376770	3.292612
308.798737	735.374023	1983.808228	772.896973	3.005601
309.168396	735.448425	2034.928589	769.330383	2.607347
309.538055	745.479187	2072.674316	763.237549	1.338037
309.907684	746.593750	2098.531738	752.909485	0.467162
310.277313	743.175781	2109.825928	745.107666	0.141359
310.646851	737.305908	2119.336426	747.931213	0.768818
311.016388	741.243958	2140.364014	752.463684	0.801913
311.385895	742.952881	2152.921387	759.299561	1.159365
311.755371	740.129395	2169.416748	762.345947	1.554380
312.124817	735.819824	2172.908691	764.129150	1.969908
312.494232	737.677429	2166.295654	767.472839	2.085610
312.863617	738.643372	2155.596436	762.940369	1.714735
313.232971	736.934326	2137.094971	764.203430	1.947570
313.602295	735.968445	2120.005127	759.745300	1.717935
313.971619	736.637146	2119.559326	762.940369	1.902003
314.340820	734.928223	2130.853271	768.513000	2.405915
314.710083	734.630920	2162.952148	769.479004	2.439793
315.079285	731.807434	2183.682617	761.602844	2.052202
315.448486	740.946716	2216.227295	749.194336	0.559054
315.817596	736.785828	2222.171631	750.680359	0.935416
316.186707	740.203674	2197.651611	756.178772	1.096101
316.555786	727.349365	2144.673828	762.866028	2.505895
316.924866	723.485657	2101.355225	763.014648	2.868849
317.293884	723.559875	2087.386230	758.927979	2.593299
317.662872	731.213074	2094.667969	761.974426	2.256133
318.031830	728.240967	2108.339600	759.225159	2.245071
318.400757	717.764221	2123.720459	763.163269	3.229051
318.769684	715.609436	2125.726318	758.036316	3.008749
319.138550	726.680603	2136.723145	758.779297	2.276434
319.507416	732.179016	2155.744873	760.859863	2.014719
319.876190	729.206848	2180.784668	767.027039	2.605454
320.244995	732.030457	2195.645264	765.838135	2.309875
320.613770	736.042786	2178.406982	767.175598	2.158457
320.982483	738.048889	2154.035889	760.116882	1.558488
321.351166	735.894104	2129.590088	757.144775	1.524771
321.719818	732.699036	2111.980469	753.429688	1.503004
322.088440	739.089172	2110.865967	756.476013	1.267469
322.457062	736.934326	2133.974121	758.259277	1.526438
322.825623	745.776367	2173.726318	748.599915	0.197734
323.194183	742.878662	2219.570801	747.485352	0.311960
323.562653	741.169617	2257.390869	753.206726	0.793889
323.931183	725.120300	2316.015625	760.265442	2.209142
324.299591	722.742493	2378.950195	759.002258	2.189325
324.668060	721.405090	2428.733154	756.401672	2.049787
325.036407	732.179016	2472.051514	759.150879	1.550221
