Jaz Data File
++++++++++++++++++++++++++++++++++++
Date: Fri Jun 04 16:02:15 2021
User: jaz
Dark Spectrum Present: Yes
Reference Spectrum Present: Yes
Processed Spectrum Present: Yes
Spectrometers: JAZA3586
Integration Time (usec): 24600 (JAZA3586)
Spectra Averaged: 10 (JAZA3586)
Boxcar Smoothing: 1 (JAZA3586)
Correct for Electrical Dark: No (JAZA3586)
Strobe/Lamp Enabled: Yes (JAZA3586)
Correct for Detector Non-linearity: No (JAZA3586)
Correct for Stray Light: No (JAZA3586)
Number of Pixels in Processed Spectrum: 2048
>>>>>Begin Processed Spectral Data<<<<<
W	D	R	S	P
191.335022	0.000000	0.000000	0.000000	0.000000
191.713211	387.488678	386.225494	385.482513	158.818130
192.091385	782.481934	776.240479	778.320984	66.666344
192.469528	1172.942749	1174.948853	1169.078979	-192.600708
192.847641	1184.311157	1189.289429	1176.880859	-149.254578
193.225739	1196.571167	1199.320190	1179.035522	-637.886353
193.603790	1211.877319	1200.360474	1192.187134	170.968567
193.981842	1215.518188	1204.224121	1200.731934	130.920547
194.359863	1208.905273	1203.852661	1207.865112	20.586601
194.737854	1212.768921	1214.849487	1199.988892	-614.257202
195.115829	1216.855591	1212.694702	1202.440918	346.432556
195.493774	1224.806030	1210.465576	1209.871216	104.144638
195.871704	1219.159058	1204.892944	1216.484253	18.749359
196.249603	1223.468628	1208.533691	1216.112671	49.253353
196.627457	1216.781372	1210.985718	1205.710205	191.025314
197.005310	1218.787598	1215.221069	1202.961060	443.751923
197.383133	1212.026001	1212.248901	1200.806274	-5033.516113
197.760910	1210.688599	1217.821655	1200.954834	-136.459930
198.138687	1208.013672	1216.707031	1203.183960	-55.556335
198.516449	1204.521484	1217.301392	1198.428589	-47.675587
198.894180	1206.527466	1213.883545	1196.719727	-133.328354
199.271866	1202.069458	1216.038330	1197.016968	-36.169636
199.649536	1199.171753	1215.221069	1199.617554	2.777693
200.027191	1201.846558	1219.901978	1200.211914	-9.053478
200.404816	1200.360474	1213.437622	1201.772339	10.796431
200.782410	1202.440918	1226.069214	1205.561646	13.207586
201.159988	1203.183960	1232.756470	1213.512085	34.924751
201.537537	1212.397461	1237.586060	1214.477905	8.259468
201.915070	1209.796875	1236.694458	1214.255005	16.574463
202.292557	1204.149902	1234.911255	1210.614136	21.014139
202.670029	1196.422485	1242.490112	1208.088013	25.322615
203.047485	1196.050903	1249.400269	1208.608032	23.537540
203.424911	1191.592773	1261.734497	1204.447144	18.326283
203.802292	1197.462524	1257.053345	1203.704102	10.474058
204.179688	1197.314087	1248.359985	1203.109741	11.353810
204.557037	1199.691772	1237.957642	1205.413086	14.951479
204.934357	1188.397827	1239.518066	1205.784546	34.011417
205.311661	1187.060181	1244.867798	1204.892944	30.848467
205.688934	1192.038574	1253.858398	1199.394409	11.898829
206.066177	1193.004517	1257.796387	1199.468750	9.976920
206.443390	1195.902222	1252.743774	1198.577271	4.706150
206.820587	1191.741333	1246.428101	1206.230347	26.494551
207.197769	1198.057129	1237.363281	1208.459473	26.464926
207.574921	1199.914551	1239.517944	1210.688477	27.204552
207.952042	1195.307739	1233.127930	1206.973511	30.845354
208.329147	1190.626831	1241.747070	1198.800171	15.988461
208.706223	1191.444092	1237.586060	1198.651489	15.620048
209.083267	1196.868286	1233.499390	1195.902344	-2.636946
209.460297	1206.378906	1227.109497	1198.428589	-38.350655
209.837280	1203.926880	1224.806030	1194.267700	-46.262321
210.214264	1195.456421	1231.567627	1192.335815	-8.641654
210.591217	1186.168579	1228.595581	1192.632935	15.236419
210.968124	1186.094360	1228.223999	1191.741333	13.403800
211.345016	1190.032349	1233.053589	1197.685669	17.789633
211.721893	1193.004517	1244.496216	1194.119019	2.164430
212.098724	1191.592773	1248.657227	1194.862183	5.729327
212.475555	1193.227417	1249.771851	1193.450317	0.394204
212.852356	1191.369873	1240.929810	1197.536987	12.443749
213.229126	1188.917847	1246.799683	1200.880493	20.667358
213.605865	1193.598999	1250.663330	1202.292358	15.234314
213.982590	1197.388550	1256.830444	1199.765991	3.999606
214.359283	1196.645386	1256.681885	1199.765991	5.197847
214.735931	1192.261475	1249.028687	1196.571167	7.591869
215.112579	1187.580444	1251.703613	1196.645386	14.136765
215.489197	1193.524536	1248.880249	1196.868164	6.040258
215.865799	1187.431885	1243.381714	1194.416138	12.483064
216.242355	1187.357544	1238.774902	1196.348022	17.485298
216.618896	1182.379272	1232.310547	1199.394531	34.077358
216.995407	1182.230469	1236.545898	1206.899048	45.417259
217.371902	1183.270752	1230.824585	1205.858765	47.499878
217.748367	1195.084961	1229.858521	1192.707153	-6.837976
218.124802	1206.304565	1228.001099	1189.437866	-77.739143
218.501236	1204.001221	1234.168213	1188.100464	-52.709122
218.877609	1188.843384	1244.570557	1192.632935	6.800185
219.253983	1176.063354	1250.366211	1190.552490	19.500107
219.630295	1180.744507	1244.719238	1190.106812	14.634379
220.006592	1182.453613	1247.096802	1195.605103	20.344742
220.382889	1194.119019	1249.846069	1198.502808	7.866537
220.759140	1195.307861	1256.904785	1200.583374	8.564571
221.135391	1203.852661	1257.499146	1198.577148	-9.833846
221.511581	1203.258301	1251.332153	1200.211914	-6.336889
221.887772	1196.422485	1251.555054	1197.834106	2.560412
222.263931	1193.227417	1245.833740	1207.344849	26.835999
222.640060	1189.066528	1242.713013	1205.784546	31.163305
223.016159	1190.329590	1241.821411	1212.620483	43.290165
223.392212	1188.843506	1243.381714	1203.183960	26.294325
223.768265	1186.094238	1250.514771	1202.069458	24.798336
224.144302	1185.276978	1253.486938	1195.605103	15.141666
224.520294	1188.249023	1251.183594	1194.564819	10.035496
224.896286	1190.106567	1257.573608	1194.862061	7.048617
225.272217	1193.598877	1257.127808	1196.719604	4.912293
225.648148	1188.769409	1260.397095	1192.112915	4.667896
226.024048	1191.964233	1254.452759	1191.741333	-0.356706
226.399902	1191.146851	1262.106079	1190.478149	-0.942374
226.775772	1198.428589	1261.140015	1192.930176	-8.767801
227.151581	1191.592651	1265.152344	1193.524536	2.626282
227.527374	1192.558594	1260.322754	1198.874390	9.320260
227.903137	1188.471924	1273.474243	1203.927002	18.181950
228.278870	1188.992065	1284.248169	1208.013550	19.968782
228.654572	1186.911621	1300.000366	1205.041504	16.031553
229.030273	1183.939575	1312.111816	1202.366699	14.376844
229.405930	1187.729126	1317.461548	1200.509033	9.850974
229.781555	1192.856079	1320.730957	1199.988892	5.577962
230.157181	1197.982910	1324.891846	1203.109619	4.039675
230.532761	1198.279907	1332.024902	1200.211792	1.444454
230.908325	1194.936401	1332.396362	1198.057129	2.270281
231.283859	1189.512207	1324.297363	1196.125244	4.906354
231.659332	1186.020020	1311.442993	1197.016968	8.767890
232.034821	1189.661011	1304.978638	1198.651489	7.796274
232.410263	1187.580444	1303.567017	1199.766113	10.506104
232.785690	1192.855957	1298.588745	1193.747559	0.843259
233.161087	1187.283203	1297.028198	1188.694946	1.286385
233.536469	1194.564819	1292.272827	1188.174683	-6.540034
233.911804	1192.930176	1291.009766	1192.261353	-0.681919
234.287140	1193.524536	1292.421509	1193.896118	0.375726
234.662430	1192.558594	1291.604248	1197.536987	5.026362
235.037704	1197.091064	1300.223267	1193.450317	-3.530175
235.412933	1202.440918	1307.430786	1200.583374	-1.769260
235.788162	1197.091187	1317.164307	1197.685547	0.494999
236.163345	1193.301758	1320.507935	1201.549316	6.483615
236.538513	1195.233521	1319.244751	1205.784546	8.508121
236.913635	1197.611206	1312.260376	1205.115845	6.545742
237.288742	1196.942505	1309.585571	1208.459473	10.224302
237.663834	1191.444214	1304.012817	1200.657715	8.184788
238.038879	1189.958130	1307.802124	1194.862061	4.161375
238.413910	1192.558716	1315.380981	1197.091187	3.690268
238.788910	1196.868286	1316.644165	1203.109619	5.210843
239.163879	1202.069458	1317.089966	1207.419189	4.651111
239.538834	1201.846558	1314.638062	1205.933105	3.623099
239.913757	1198.800171	1325.857666	1205.784546	5.497019
240.288651	1200.954956	1341.238281	1203.778442	2.012703
240.663528	1200.657715	1351.046387	1199.320190	-0.889378
241.038361	1196.793945	1366.798462	1196.273804	-0.305958
241.413177	1193.524536	1384.110962	1196.793823	1.715383
241.787979	1199.394531	1414.649536	1201.846558	1.139126
242.162735	1194.490601	1437.163208	1201.994995	3.092395
242.537476	1190.849731	1452.989624	1200.434692	3.656430
242.912170	1187.729004	1465.101074	1201.623657	5.009392
243.286865	1186.837280	1482.042114	1198.502930	3.951714
243.661514	1186.391602	1493.484741	1201.326294	4.863245
244.036148	1187.134644	1488.506470	1195.753662	2.859928
244.410751	1196.422485	1474.908813	1197.908569	0.533629
244.785339	1201.995117	1457.967896	1191.741333	-4.005810
245.159882	1201.252075	1450.091797	1196.273804	-2.000594
245.534378	1201.549194	1447.639771	1197.165405	-1.781372
245.908890	1200.806274	1471.639648	1204.447144	1.344321
246.283356	1200.360474	1503.515625	1209.128174	2.892149
246.657791	1195.976685	1551.292114	1210.094116	3.973211
247.032196	1191.741333	1598.846069	1211.059937	4.745365
247.406586	1194.787720	1662.300415	1199.171509	0.937683
247.780960	1191.667114	1722.188477	1190.552490	-0.210100
248.155289	1189.363647	1747.599976	1186.688843	-0.479153
248.529602	1183.047852	1741.878784	1193.227417	1.821582
248.903870	1195.159302	1695.067993	1202.961060	1.560637
249.278122	1198.725830	1649.148804	1200.583374	0.412400
249.652344	1201.995117	1596.096680	1196.050903	-1.508295
250.026550	1195.456543	1558.648071	1193.301636	-0.593325
250.400711	1199.989136	1534.871460	1199.245972	-0.221918
250.774857	1201.400757	1520.456665	1207.864990	2.026050
251.148987	1197.759888	1518.004517	1205.710205	2.482576
251.523071	1190.255249	1513.769165	1211.803101	6.660564
251.897125	1186.837280	1524.766113	1206.601929	5.848761
252.271164	1195.159302	1534.574097	1215.295410	5.932596
252.645187	1201.177856	1558.127930	1206.379028	1.457115
253.019165	1196.645264	1576.852173	1204.075562	1.954277
253.393112	1194.787720	1585.099976	1195.382202	0.152309
253.767044	1195.307983	1572.914429	1200.731934	1.436403
254.140930	1201.475098	1541.781616	1202.292358	0.240154
254.514801	1196.942505	1523.131470	1204.521362	2.323456
254.888657	1196.125244	1503.738647	1198.799927	0.869495
255.262466	1192.855835	1508.642578	1200.509033	2.423534
255.636276	1192.038452	1503.589966	1205.784546	4.412141
256.010010	1192.781616	1508.493774	1211.208618	5.836646
256.383759	1195.159302	1519.861938	1208.013550	3.958775
256.757446	1196.050903	1540.221069	1207.270508	3.259900
257.131134	1190.775269	1566.895874	1210.242676	5.175842
257.504791	1188.546265	1589.409668	1222.576904	8.489336
257.878418	1192.187134	1620.319458	1228.521118	8.486625
258.252014	1190.849731	1657.099243	1223.319946	6.964128
258.625580	1193.821777	1694.027710	1213.140503	3.862154
258.999115	1196.496704	1755.401733	1208.310913	2.113813
259.372650	1199.840332	1837.803345	1204.521484	0.733765
259.746124	1190.478149	1936.105957	1205.784546	2.052820
260.119598	1183.122192	2027.572632	1204.224243	2.498909
260.493042	1179.852905	2101.429443	1207.939331	3.047650
260.866425	1188.620605	2141.181396	1206.527588	1.879878
261.239838	1191.295410	2115.547119	1200.211792	0.964714
261.613159	1198.948608	2026.160767	1198.057007	-0.107784
261.986511	1194.639282	1921.914063	1201.549316	0.950127
262.359802	1194.862061	1844.342163	1203.927002	1.395723
262.733063	1191.146851	1812.466309	1200.211914	1.459002
263.106293	1197.685425	1800.875000	1197.685547	0.000020
263.479523	1194.564819	1787.277710	1195.307861	0.125363
263.852692	1197.314087	1784.156860	1194.044678	-0.557118
264.225861	1195.010620	1772.862915	1194.341919	-0.115722
264.598969	1203.852661	1773.754517	1197.016724	-1.199494
264.972076	1204.447144	1764.764038	1201.103516	-0.596739
265.345154	1204.372681	1772.045532	1195.976563	-1.479042
265.718201	1201.474976	1786.683105	1199.394531	-0.355505
266.091217	1197.091187	1816.329956	1200.137573	0.491957
266.464203	1191.146973	1851.846558	1205.041626	2.103021
266.837158	1188.843628	1894.124878	1202.961060	2.001674
267.210114	1190.255371	1932.836548	1207.196411	2.281372
267.583038	1194.342041	1960.328735	1212.769165	2.405672
267.955902	1189.958130	1966.272949	1212.471802	2.900070
268.328766	1188.174805	1969.913696	1204.075684	2.034040
268.701569	1189.586548	1969.022095	1195.828003	0.800766
269.074371	1193.598877	1982.842407	1199.171631	0.706088
269.447144	1195.679321	1986.185913	1203.926880	1.043326
269.819885	1195.307861	2008.030884	1207.939453	1.554231
270.192596	1201.549316	2029.504395	1203.183960	0.197431
270.565277	1202.218140	2077.132568	1207.642090	0.619941
270.937927	1208.310791	2138.655273	1206.379028	-0.207640
271.310577	1201.846558	2206.642334	1209.276733	0.739471
271.683136	1200.731934	2290.901611	1203.703979	0.272622
272.055725	1192.038452	2350.640869	1207.270630	1.314703
272.428284	1194.341919	2380.659180	1204.075562	0.820492
272.800812	1191.592773	2357.179443	1208.088013	1.415188
273.173279	1188.843384	2322.554443	1203.704102	1.310803
273.545776	1186.242798	2302.789795	1204.744385	1.657036
273.918152	1189.735229	2282.059326	1197.239746	0.687023
274.290558	1196.199585	2252.784180	1193.896118	-0.218011
274.662964	1199.691772	2237.403564	1194.936401	-0.458255
275.035278	1199.245972	2224.474854	1198.874390	-0.036244
275.407593	1191.146851	2239.260986	1211.431519	1.935349
275.779907	1190.106567	2248.400391	1219.902100	2.815431
276.152161	1190.998169	2273.885986	1226.366455	3.266108
276.524384	1191.443970	2305.910889	1225.400513	3.046887
276.896606	1188.769287	2340.981689	1207.939331	1.663760
277.268799	1193.227417	2373.451904	1200.806274	0.642154
277.640930	1202.515259	2388.015137	1192.261353	-0.864944
278.013031	1202.812378	2398.863281	1198.725830	-0.341670
278.385162	1199.691772	2404.064697	1208.979614	0.771177
278.757233	1193.970337	2396.411377	1214.552368	1.711687
279.129272	1203.035522	2384.374268	1212.546143	0.805071
279.501282	1201.177856	2381.996582	1197.536987	-0.308334
279.873230	1202.069458	2407.185303	1195.456421	-0.548747
280.245178	1192.187134	2443.965088	1199.988892	0.623254
280.617126	1189.437988	2506.305176	1205.933105	1.252603
280.988983	1188.323364	2566.193115	1199.840332	0.835853
281.360870	1190.478149	2625.858154	1199.543091	0.631536
281.732697	1191.518433	2684.780273	1202.218018	0.716524
282.104492	1189.809448	2746.376953	1207.939331	1.164735
282.476288	1187.431763	2805.150391	1206.230347	1.162043
282.848053	1190.775391	2847.577393	1205.338867	0.879011
283.219757	1196.125244	2867.639404	1207.344849	0.671224
283.591461	1195.605103	2852.555908	1212.471802	1.017936
283.963135	1194.267700	2831.676758	1211.059937	1.025537
284.334747	1195.159302	2827.441406	1209.053833	0.851233
284.706360	1198.205688	2861.174805	1201.103394	0.174249
285.077942	1198.428589	2914.375732	1201.920776	0.203514
285.449524	1195.530762	2967.427734	1205.784668	0.578697
285.821014	1198.651489	3006.436768	1209.499634	0.600079
286.192535	1197.982788	3066.919189	1211.877441	0.743452
286.563995	1197.388428	3120.863037	1207.567749	0.529215
286.935425	1192.187256	3173.915039	1209.425293	0.869849
287.306824	1193.078735	3157.642578	1212.843140	1.006045
287.678223	1195.605103	3115.438721	1210.911377	0.797271
288.049561	1202.738159	3054.510498	1202.961060	0.012037
288.420898	1202.663818	3007.105469	1191.146851	-0.638257
288.792145	1201.326294	2986.672119	1197.908447	-0.191439
289.163452	1192.484253	2991.799072	1199.394531	0.384051
289.534668	1187.431641	3032.294189	1204.447021	0.922312
289.905914	1182.304810	3074.349365	1199.394409	0.903235
290.277039	1188.769165	3150.732422	1207.567871	0.958158
290.648193	1187.060181	3225.183594	1210.465698	1.148386
291.019318	1189.214966	3303.127197	1209.351196	0.952558
291.390381	1181.859131	3336.786377	1203.332520	0.996479
291.761475	1183.865356	3328.687500	1206.824829	1.070460
292.132507	1182.825073	3301.418701	1207.939331	1.185421
292.503510	1179.852905	3267.462158	1211.282837	1.505547
292.874481	1183.493652	3247.177734	1209.648315	1.267377
293.245422	1187.134644	3249.332275	1209.128296	1.066515
293.616364	1188.992188	3284.106201	1207.642212	0.890168
293.987213	1188.620605	3327.870361	1208.831055	0.944745
294.358093	1190.106689	3409.305908	1208.087891	0.810256
294.728943	1195.902344	3496.983154	1212.174683	0.707161
295.099731	1198.800049	3603.384521	1208.905273	0.420248
295.470490	1194.416138	3661.860596	1209.796997	0.623352
295.841248	1192.112793	3702.355713	1202.143677	0.399598
296.211975	1192.261475	3742.330811	1198.800171	0.256412
296.582642	1197.313965	3815.890625	1197.611206	0.011351
296.953308	1196.348145	3898.218018	1203.927124	0.280509
297.323883	1190.552612	3972.149170	1213.140625	0.812052
297.694519	1186.391602	4024.384033	1210.911499	0.863987
298.065063	1191.147095	4035.455078	1209.053833	0.629564
298.435608	1195.382202	3997.709229	1207.270630	0.424234
298.806122	1196.719604	3882.242920	1210.688599	0.520159
299.176575	1197.165405	3752.212891	1208.979492	0.462382
299.547028	1196.942505	3644.473877	1204.744263	0.318760
299.917450	1197.091187	3595.657227	1206.601929	0.396518
300.287872	1197.239746	3577.899170	1201.029175	0.159176
300.658234	1196.719604	3559.768799	1198.428589	0.072321
301.028564	1198.577271	3535.249023	1197.536987	-0.044520
301.398865	1196.125244	3521.800049	1211.877319	0.677312
301.769135	1195.605103	3506.642578	1213.512085	0.774846
302.139374	1193.524536	3519.571289	1212.249023	0.804992
302.509583	1190.923950	3534.283203	1200.806274	0.421716
302.879791	1192.038452	3539.707764	1204.670044	0.538048
303.249939	1189.958008	3516.822266	1207.270630	0.744032
303.620087	1197.982788	3488.364014	1212.694702	0.642335
303.990173	1195.605103	3468.005127	1205.413086	0.431613
304.360260	1195.456421	3454.110352	1206.453247	0.486875
304.730286	1186.243042	3436.054932	1206.899170	0.918127
305.100281	1186.763062	3434.494385	1214.403687	1.229712
305.470276	1183.939575	3457.008057	1212.917603	1.274842
305.840179	1185.648560	3471.051514	1210.168457	1.072892
306.210144	1186.614502	3482.791260	1208.013672	0.931948
306.579987	1194.193359	3489.404297	1206.824707	0.550335
306.949890	1200.211914	3510.134766	1205.858765	0.244461
307.319702	1197.759766	3546.765869	1201.549316	0.161326
307.689484	1193.375977	3583.545898	1203.555542	0.425893
308.059265	1188.843628	3633.922852	1204.744385	0.650317
308.429016	1189.215088	3703.395752	1210.985840	0.865918
308.798737	1191.444092	3776.807373	1210.911499	0.752985
309.168396	1191.221191	3856.682861	1218.044556	1.006331
309.538055	1188.546265	3903.790771	1219.530518	1.141122
309.907684	1185.648560	3950.378174	1222.725586	1.341072
310.277313	1187.803345	3985.821045	1218.044434	1.080804
310.646851	1196.496704	4020.371826	1211.208618	0.520983
311.016388	1207.493530	4042.662842	1204.744263	-0.096970
311.385895	1204.372681	4044.520264	1204.892944	0.018318
311.755371	1200.732056	4044.891602	1204.892944	0.146296
312.124817	1194.044800	4049.498291	1207.865112	0.483997
312.494232	1196.125244	4037.386963	1208.088013	0.421037
312.863617	1191.890015	4016.136719	1217.078491	0.891865
313.232971	1184.236694	3975.195557	1210.539917	0.942444
313.602295	1190.032349	3947.629150	1208.236572	0.660148
313.971619	1188.694946	3945.325928	1197.388306	0.315362
314.340820	1193.450317	3949.709717	1208.459473	0.544548
314.710083	1188.174927	3985.226563	1210.837158	0.810219
315.079285	1191.444214	4022.452148	1211.431519	0.706014
315.448486	1189.809570	4070.451904	1210.465698	0.717067
315.817596	1184.608276	4078.922607	1215.146729	1.055119
316.186707	1186.094360	4034.637939	1227.035156	1.437254
316.555786	1189.140747	3955.728516	1219.010376	1.079656
316.924866	1192.187134	3873.326904	1210.094116	0.667887
317.293884	1192.261353	3826.218750	1203.555420	0.428787
317.662872	1194.193359	3804.670898	1209.425415	0.583497
318.031830	1193.970459	3821.017334	1206.230347	0.466679
318.400757	1194.119019	3837.884033	1208.459473	0.542425
318.769684	1192.855957	3864.929932	1211.877319	0.711858
319.138550	1193.153076	3899.555420	1214.032104	0.771468
319.507416	1197.388306	3934.106201	1213.586304	0.591877
