Jaz Data File
++++++++++++++++++++++++++++++++++++
Date: Fri Jun 04 15:59:25 2021
User: jaz
Dark Spectrum Present: Yes
Reference Spectrum Present: Yes
Processed Spectrum Present: Yes
Spectrometers: JAZA3586
Integration Time (usec): 24700 (JAZA3586)
Spectra Averaged: 10 (JAZA3586)
Boxcar Smoothing: 1 (JAZA3586)
Correct for Electrical Dark: No (JAZA3586)
Strobe/Lamp Enabled: Yes (JAZA3586)
Correct for Detector Non-linearity: No (JAZA3586)
Correct for Stray Light: No (JAZA3586)
Number of Pixels in Processed Spectrum: 2048
>>>>>Begin Processed Spectral Data<<<<<
W	D	R	S	P
191.335022	0.000000	0.000000	0.000000	0.000000
191.713211	406.287323	398.113983	396.033478	125.454773
192.091385	811.162842	800.463196	800.686218	97.915611
192.469528	1212.546265	1209.945435	1200.732056	454.247620
192.847641	1212.248901	1219.604858	1207.939331	-58.586128
193.225739	1210.762817	1231.790405	1216.186890	25.795029
193.603790	1224.286011	1236.694458	1232.459229	65.868172
193.981842	1230.453003	1241.227051	1237.437500	64.827049
194.359863	1241.449707	1247.022583	1240.632446	-14.664972
194.737854	1239.889526	1250.811890	1244.347778	40.817650
195.115829	1238.180542	1254.675659	1251.035034	77.929077
195.493774	1239.889526	1251.777954	1246.205200	53.124550
195.871704	1244.570679	1251.332153	1237.066040	-110.991150
196.249603	1251.035034	1250.440552	1242.267212	1474.866577
196.627457	1250.143188	1249.326050	1245.090698	618.314880
197.005310	1247.394043	1244.199097	1248.434204	-32.556450
197.383133	1247.914185	1243.530396	1243.753296	94.915352
197.760910	1248.359985	1246.353882	1242.787354	277.783875
198.138687	1240.261108	1248.508667	1250.217651	120.721092
198.516449	1235.654419	1252.372314	1248.583008	77.333832
198.894180	1235.431396	1252.595215	1245.759399	60.173107
199.271866	1241.969971	1249.548828	1239.369385	-34.313694
199.649536	1251.480713	1243.307495	1236.620117	181.820633
200.027191	1250.514771	1232.905029	1240.335327	57.805752
200.404816	1249.400269	1233.796753	1233.796631	100.000786
200.782410	1236.323120	1246.725220	1241.672729	51.428169
201.159988	1233.648071	1269.536255	1249.846069	45.134628
201.537537	1227.555298	1287.740356	1258.985229	52.222149
201.915070	1229.561401	1287.740356	1256.607544	46.487846
202.292557	1222.725586	1282.836548	1252.298096	49.196533
202.670029	1230.453003	1278.526978	1246.502441	33.384880
203.047485	1223.245728	1276.966675	1246.353882	43.015167
203.424911	1228.521240	1276.669434	1243.158813	30.401085
203.802292	1223.171387	1272.211060	1246.576782	47.727470
204.179688	1229.041382	1271.245239	1246.948242	42.429440
204.557037	1226.738037	1269.239136	1249.400269	53.321518
204.934357	1223.914429	1269.239014	1253.412598	65.082047
205.311661	1223.988770	1272.062500	1255.344604	65.224464
205.688934	1221.239502	1271.319458	1255.864624	69.139679
206.066177	1224.062988	1272.211182	1250.886353	55.710011
206.443390	1225.028931	1276.372070	1246.799683	42.402454
206.820587	1228.669800	1278.824097	1240.632446	23.851688
207.197769	1231.344604	1279.270020	1236.025757	9.767578
207.574921	1228.669800	1274.886108	1234.539673	12.700870
207.952042	1225.994751	1276.669434	1240.855469	29.325724
208.329147	1214.329468	1279.715820	1244.273438	45.795444
208.706223	1224.137329	1287.591919	1246.279541	34.894577
209.083267	1230.378784	1281.573364	1238.626343	16.110218
209.460297	1235.951416	1276.372192	1242.341431	15.808738
209.837280	1227.629517	1266.564087	1240.409546	32.824375
210.214264	1223.319946	1266.415649	1245.462280	51.379448
210.591217	1226.812134	1266.712891	1243.604614	42.085617
210.968124	1229.635742	1274.068726	1244.719116	33.946346
211.345016	1222.948364	1274.886108	1242.490112	37.625332
211.721893	1219.827759	1275.480591	1239.443604	35.246803
212.098724	1215.666870	1275.480469	1235.802856	33.664562
212.475555	1219.902100	1274.440308	1237.140259	31.607491
212.852356	1221.536743	1277.783813	1234.614014	23.249691
213.229126	1222.205566	1267.901611	1236.397339	31.056894
213.605865	1229.189941	1270.279297	1232.533569	8.137455
213.982590	1231.270386	1261.363037	1234.316772	10.123358
214.359283	1233.722290	1261.140137	1235.951294	8.129756
214.735931	1223.840088	1262.180298	1235.877075	31.395205
215.112579	1221.388184	1271.393921	1236.322876	29.865957
215.489197	1210.911499	1270.056519	1237.288940	44.597908
215.865799	1210.317017	1268.793335	1239.740845	50.317513
216.242355	1208.533813	1268.496094	1232.830688	40.520264
216.618896	1213.883545	1276.446411	1233.648071	31.591465
216.995407	1221.982544	1283.356567	1234.316772	20.096823
217.371902	1221.165161	1280.904663	1241.226929	33.582081
217.748367	1220.942261	1270.650879	1237.066040	32.436588
218.124802	1214.477905	1265.523926	1240.558105	51.091545
218.501236	1212.620361	1270.873779	1241.449829	49.489746
218.877609	1213.289063	1283.876831	1236.322876	32.631451
219.253983	1215.963989	1275.480469	1236.843140	35.081291
219.630295	1220.868042	1276.000610	1236.322876	28.032131
220.006592	1222.502686	1272.879883	1247.765503	50.147327
220.382889	1216.929932	1283.653809	1248.434326	47.216072
220.759140	1218.564575	1279.864380	1252.223755	54.909115
221.135391	1218.341797	1275.034668	1248.954346	53.997173
221.511581	1218.936157	1268.570313	1252.223633	67.065666
221.887772	1217.227051	1265.449585	1253.784058	75.808968
222.263931	1215.889771	1274.365967	1257.202026	70.647987
222.640060	1225.103271	1272.731323	1254.527222	61.778614
223.016159	1226.069214	1265.152344	1253.561157	70.342224
223.392212	1229.932983	1260.174194	1247.171265	57.002617
223.768265	1224.062988	1267.604492	1242.267212	41.808899
224.144302	1218.861694	1274.366089	1244.273438	45.783298
224.520294	1214.032104	1276.595093	1247.914185	54.156750
224.896286	1214.255005	1282.167847	1253.561157	57.877350
225.272217	1224.880371	1287.740356	1248.359985	37.352242
225.648148	1227.332397	1293.238770	1250.068970	34.498291
226.024048	1224.657349	1285.511353	1244.199097	32.112511
226.399902	1219.753540	1288.483521	1248.211548	41.405521
226.775772	1217.821533	1286.402954	1246.056763	41.170376
227.151581	1224.954590	1289.895264	1246.799683	33.638538
227.527374	1216.632813	1295.616577	1245.759399	36.876675
227.903137	1208.533813	1300.074829	1246.130859	41.071259
228.278870	1203.555542	1302.601074	1249.400269	46.286518
228.654572	1210.168457	1310.328491	1252.075073	41.839657
229.030273	1221.908203	1324.520386	1248.731445	26.140408
229.405930	1225.548950	1344.359131	1246.353760	17.510965
229.781555	1222.874146	1355.950439	1247.542603	18.537079
230.157181	1212.620361	1364.940918	1249.846069	24.439056
230.532761	1215.592529	1365.981323	1250.291870	23.073090
230.908325	1213.883545	1361.374390	1247.171143	22.569263
231.283859	1212.397461	1352.978271	1245.016357	23.202951
231.659332	1214.998169	1341.684326	1242.341431	21.583464
232.034821	1212.620483	1329.572998	1236.025757	20.012629
232.410263	1223.691406	1315.901245	1241.226929	19.016975
232.785690	1214.180786	1315.678223	1246.502441	31.844799
233.161087	1222.056885	1322.439819	1253.041138	30.866056
233.536469	1217.747192	1330.315918	1242.787476	22.244440
233.911804	1221.388184	1331.058960	1237.363281	14.566413
234.287140	1219.233276	1337.820435	1240.335449	17.794653
234.662430	1219.456177	1338.637817	1247.171265	23.254494
235.037704	1214.180786	1342.798828	1249.251709	27.267498
235.412933	1212.174561	1340.941162	1247.096924	27.120668
235.788162	1213.586426	1345.102173	1249.103027	27.005589
236.163345	1216.484131	1343.616089	1248.137085	24.897717
236.538513	1221.611084	1343.170288	1246.056519	20.109900
236.913635	1224.211792	1338.489258	1244.124634	17.424994
237.288742	1225.623535	1345.622192	1247.542725	18.266195
237.663834	1218.713257	1341.609863	1241.301270	18.379688
238.038879	1213.883423	1336.854492	1239.072266	20.483551
238.413910	1213.734863	1337.820435	1230.675903	13.652707
238.788910	1219.753540	1338.637695	1233.722290	11.749884
239.163879	1225.028931	1348.520020	1235.579956	8.543957
239.538834	1225.697632	1348.817261	1239.146484	10.923403
239.913757	1223.245728	1361.002808	1248.954468	18.662373
240.288651	1213.066284	1368.730347	1257.127808	28.305521
240.663528	1212.248901	1380.321655	1262.328979	29.796667
241.038361	1214.477905	1388.940796	1252.966919	22.061434
241.413177	1226.515137	1409.894165	1250.143433	12.884950
241.787979	1228.595459	1430.698853	1250.143433	10.661857
242.162735	1221.090942	1461.906250	1254.750122	13.977176
242.537476	1217.895874	1476.692261	1249.771851	12.317010
242.912170	1212.100342	1506.413452	1244.199097	10.906328
243.286865	1225.697754	1524.617554	1241.375488	5.244796
243.661514	1221.908203	1541.335571	1239.889526	5.629237
244.036148	1228.149658	1525.137695	1238.031982	3.327516
244.410751	1227.926758	1496.456665	1245.016479	6.364178
244.785339	1227.332397	1479.515625	1244.496216	6.806090
245.159882	1225.623413	1466.587036	1253.041138	11.378366
245.534378	1222.428345	1478.326782	1245.016479	8.826992
245.908890	1225.103271	1486.648804	1243.381714	6.988627
246.283356	1225.548950	1514.215210	1244.644897	6.615233
246.657791	1222.279663	1556.344727	1248.954468	7.984913
247.032196	1220.422119	1624.480469	1258.316528	9.378449
247.406586	1214.329346	1706.064819	1249.771606	7.207587
247.780960	1209.425293	1752.132446	1245.610718	6.667578
248.155289	1210.762817	1768.479126	1246.205200	6.354912
248.529602	1212.843262	1744.330688	1251.109253	7.199792
248.903870	1214.998047	1708.293945	1256.384766	8.389836
249.278122	1218.490234	1659.700073	1248.657104	6.837307
249.652344	1223.914429	1619.279297	1245.685059	5.506465
250.026550	1221.165161	1591.861450	1238.477661	4.670265
250.400711	1222.948608	1571.874023	1236.842896	3.982022
250.774857	1227.406616	1553.744141	1236.471558	2.777781
251.148987	1240.260986	1548.171509	1235.654175	-1.496153
251.523071	1235.134155	1541.409790	1244.199097	2.959733
251.897125	1221.090942	1552.406738	1247.691284	8.028697
252.271164	1206.378906	1565.929688	1248.359985	11.675981
252.645187	1205.635986	1594.239258	1250.217651	11.472282
253.019165	1217.821655	1611.774780	1249.548950	8.053571
253.393112	1229.635742	1607.167847	1256.533325	7.124582
253.767044	1231.196167	1583.390991	1250.886353	5.590708
254.140930	1226.292114	1556.047485	1246.725464	6.196517
254.514801	1218.044556	1541.707153	1239.295044	6.565630
254.888657	1219.530640	1530.338867	1234.168091	4.709480
255.262466	1220.422241	1529.075684	1239.666382	6.234870
255.636276	1214.923828	1523.205933	1238.477539	7.640311
256.010010	1210.242798	1537.694824	1249.623169	12.026302
256.383759	1213.809204	1547.279907	1242.118652	8.489336
256.757446	1220.422241	1572.245483	1249.771729	8.342112
257.131134	1219.381958	1586.363159	1248.805786	8.017802
257.504791	1218.564575	1610.288574	1255.641724	9.465120
257.878418	1220.570801	1634.882813	1250.960571	7.334996
258.252014	1226.440796	1676.789429	1242.787231	3.629729
258.625580	1221.536743	1724.120483	1237.734741	3.222945
258.999115	1230.824585	1784.528442	1241.524170	1.932366
259.372650	1231.121704	1860.614380	1247.988403	2.679411
259.746124	1232.682129	1951.263672	1255.121460	3.122726
260.119598	1223.319946	2049.120361	1251.257690	3.383111
260.493042	1216.335571	2127.435547	1252.892456	4.012390
260.866425	1216.409912	2168.004883	1251.926636	3.732336
261.239838	1213.512085	2137.466553	1249.623169	3.908319
261.613159	1219.307617	2063.609375	1245.016479	3.044985
261.986511	1216.558472	1966.793091	1240.855469	3.238586
262.359802	1221.090942	1897.988770	1243.158813	3.260148
262.733063	1222.502808	1845.530884	1247.988647	4.090641
263.106293	1227.926758	1832.973755	1246.428101	3.057836
263.479523	1221.759644	1825.840698	1247.914185	4.329641
263.852692	1218.713135	1821.679688	1246.576782	4.621093
264.225861	1217.598633	1801.618042	1253.709839	6.183220
264.598969	1218.861938	1785.048462	1261.140015	7.467164
264.972076	1213.437866	1787.277710	1261.140015	8.312799
265.345154	1208.013672	1806.224976	1263.815063	9.328040
265.718201	1205.264526	1829.556030	1258.762451	8.569382
266.091217	1214.180786	1856.156250	1257.573608	6.759265
266.464203	1212.768921	1882.310913	1257.424927	6.669635
266.837158	1215.592407	1915.003906	1261.883057	6.618514
267.210114	1210.465576	1957.059204	1262.180298	6.926756
267.583038	1215.815308	1983.734009	1256.682007	5.321748
267.955902	1220.199341	2005.504883	1253.412598	4.229342
268.328766	1221.462402	2002.458374	1249.846069	3.634291
268.701569	1225.549194	2003.052734	1242.341431	2.159763
269.074371	1221.090942	2008.179688	1235.951538	1.888046
269.447144	1218.713257	2017.913452	1239.220825	2.566011
269.819885	1208.385132	2035.151733	1255.790405	5.733816
270.192596	1207.047729	2064.129639	1261.065796	6.302556
270.565277	1209.276855	2104.327393	1262.774780	5.977084
270.937927	1208.682373	2156.041992	1255.567383	4.949019
271.310577	1211.060181	2222.468750	1253.115356	4.158080
271.683136	1207.865112	2295.582764	1249.103149	3.791245
272.055725	1215.889771	2373.823486	1245.833862	2.585994
272.428284	1212.100342	2408.894287	1248.657349	3.054578
272.800812	1210.317017	2415.209717	1247.765625	3.108045
273.173279	1208.533813	2382.219482	1245.759399	3.171683
273.545776	1217.672974	2359.111328	1240.632446	2.011451
273.918152	1230.230103	2326.121094	1244.793457	1.328905
274.290558	1230.973145	2298.777588	1246.130859	1.419522
274.662964	1227.035034	2270.171143	1255.715942	2.749489
275.035278	1219.233276	2258.356934	1258.242310	3.754032
275.407593	1220.942261	2259.694336	1265.598267	4.299005
275.779907	1223.022827	2277.229492	1260.768433	3.580475
276.152161	1229.189819	2301.898193	1260.694214	2.936902
276.524384	1228.298218	2347.891846	1257.424927	2.601543
276.896606	1225.251953	2370.331055	1263.815063	3.367725
277.268799	1221.610962	2393.959473	1262.254761	3.466870
277.640930	1219.753540	2413.724121	1262.477539	3.578313
278.013031	1214.626587	2432.002441	1255.493042	3.356930
278.385162	1212.100342	2443.073486	1246.056519	2.758482
278.757233	1211.357300	2427.544189	1240.558228	2.401023
279.129272	1218.118774	2420.188477	1240.409668	1.854376
279.501282	1214.552368	2425.984131	1241.895630	2.257103
279.873230	1219.159058	2453.475830	1249.920410	2.492177
280.245178	1225.251831	2494.862549	1249.325928	1.896179
280.617126	1227.406616	2543.382080	1256.904907	2.241553
280.988983	1228.446899	2605.276123	1254.229980	1.872642
281.360870	1228.744019	2671.925781	1258.316528	2.049119
281.732697	1226.366333	2734.340088	1255.270142	1.916732
282.104492	1223.319946	2791.033203	1257.944946	2.208631
282.476288	1217.970093	2834.128906	1261.660278	2.703335
282.848053	1217.375854	2879.676025	1263.740723	2.789200
283.219757	1215.592651	2895.948486	1262.106079	2.768070
283.591461	1216.632690	2887.552002	1252.520996	2.147818
283.963135	1220.793823	2860.803467	1248.805786	1.708036
284.334747	1221.610962	2850.623779	1249.846069	1.733265
284.706360	1219.381958	2881.831055	1256.979126	2.261553
285.077942	1216.632813	2936.815186	1261.734497	2.621913
285.449524	1219.307739	3003.539063	1266.564209	2.648562
285.821014	1216.929932	3052.653076	1262.997681	2.509515
286.192535	1214.477905	3111.129639	1263.146240	2.566013
286.563995	1212.768921	3152.813232	1256.161743	2.236692
286.935425	1215.592407	3199.697998	1255.418823	2.007273
287.306824	1217.895996	3203.413086	1252.892456	1.762587
287.678223	1216.261230	3167.004639	1246.874023	1.569288
288.049561	1218.193115	3114.844482	1248.359985	1.590533
288.420898	1226.366333	3056.071045	1246.874023	1.120820
288.792145	1217.598633	3032.294189	1249.771729	1.772920
289.163452	1217.227173	3023.823486	1249.846069	1.805544
289.534668	1212.248901	3065.210205	1251.703613	2.129279
289.905914	1223.468628	3114.992920	1250.960571	1.453428
290.277039	1216.112671	3184.837646	1250.143188	1.728556
290.648193	1214.180786	3263.449951	1255.195801	2.001446
291.019318	1209.276733	3343.399658	1259.208130	2.339668
291.390381	1214.180786	3390.432861	1258.836792	2.051969
291.761475	1216.781372	3375.052490	1255.493164	1.793648
292.132507	1222.056885	3350.680908	1255.344482	1.563808
292.503510	1228.075317	3312.786865	1261.140015	1.586056
292.874481	1230.453125	3284.328857	1266.266968	1.743720
293.245422	1231.344727	3271.325439	1279.641479	2.367510
293.616364	1230.081543	3286.557861	1274.737427	2.171476
293.987213	1230.898926	3346.223389	1273.474243	2.012709
294.358093	1232.607910	3427.287354	1267.307129	1.581061
294.728943	1224.211548	3545.874268	1266.044067	1.801835
295.099731	1217.227173	3649.972656	1268.421753	2.104395
295.470490	1212.100220	3724.498047	1263.740723	2.055427
295.841248	1214.849609	3773.315186	1270.948120	2.192662
296.211975	1211.505859	3829.785156	1265.375366	2.057439
296.582642	1213.809204	3901.487305	1262.106079	1.796974
296.953308	1215.518188	3986.043701	1256.756226	1.488456
297.323883	1222.354126	4061.460938	1255.121582	1.154147
297.694519	1220.645020	4114.958984	1255.344482	1.198884
298.065063	1213.883667	4124.543945	1257.647827	1.503582
298.435608	1212.323120	4075.281250	1259.653931	1.653214
298.806122	1214.998047	3969.474365	1257.127808	1.529502
299.176575	1213.289185	3841.599365	1256.236084	1.634012
299.547028	1208.905273	3736.014893	1253.858276	1.778831
299.917450	1207.716431	3677.167236	1256.384644	1.970811
300.287872	1212.546143	3636.523682	1252.892456	1.664467
300.658234	1217.821655	3614.455811	1252.595337	1.450938
301.028564	1216.038330	3584.140381	1256.459106	1.706885
301.398865	1223.097046	3568.982422	1262.031738	1.659701
301.769135	1226.069214	3551.298828	1273.251465	2.029144
302.139374	1223.765869	3560.809326	1273.994507	2.149239
302.509583	1224.657471	3569.354248	1274.886108	2.142223
302.879791	1224.360229	3567.273438	1258.985352	1.477866
303.249939	1222.948486	3541.267578	1260.174194	1.605720
303.620087	1218.936157	3504.190674	1252.075195	1.450125
303.990173	1215.666870	3493.194092	1259.728394	1.934621
304.360260	1219.381958	3481.305420	1257.499146	1.685167
304.730286	1221.016602	3484.872070	1262.328979	1.824868
305.100281	1228.744141	3474.692627	1262.923462	1.521821
305.470276	1233.053711	3495.125732	1258.539551	1.126659
305.840179	1226.589355	3508.722900	1254.378540	1.217684
306.210144	1225.994995	3534.803467	1251.109253	1.087758
306.579987	1216.484253	3541.936279	1255.864624	1.693450
306.949890	1230.230347	3552.784424	1263.071899	1.414027
307.319702	1226.812256	3584.511719	1272.285400	1.928708
307.689484	1230.304443	3606.208252	1271.170898	1.720038
308.059265	1222.279785	3665.427490	1268.867554	1.906875
308.429016	1215.666748	3720.634521	1256.979126	1.649218
308.798737	1209.202393	3817.079346	1257.796509	1.863359
309.168396	1210.019775	3901.041748	1255.938965	1.706385
309.538055	1216.038208	3955.059570	1261.734497	1.668344
309.907684	1219.233398	3989.981689	1265.969727	1.686776
310.277313	1215.889771	4014.055908	1267.232788	1.834881
310.646851	1210.094116	4046.526123	1272.954102	2.216164
311.016388	1208.831055	4087.466797	1269.684814	2.113979
311.385895	1209.648315	4092.667969	1271.616699	2.149426
311.755371	1217.301392	4094.079834	1265.672485	1.681433
312.124817	1222.502563	4079.888428	1262.403198	1.396404
312.494232	1215.146606	4073.349365	1258.093628	1.502588
312.863617	1209.871216	4051.727295	1262.774780	1.861585
313.232971	1208.831055	4030.031006	1264.260742	1.964756
313.602295	1217.078613	4008.854736	1273.177124	2.009420
313.971619	1222.056763	4009.969482	1265.598145	1.561792
314.340820	1225.029175	3988.124268	1267.455688	1.535471
314.710083	1223.988770	4017.399414	1259.059448	1.255479
315.079285	1222.428467	4055.888428	1273.028442	1.785802
315.448486	1217.301636	4114.661621	1273.548584	1.941317
315.817596	1220.570801	4100.023926	1272.731323	1.811473
316.186707	1223.394287	4050.687256	1262.551880	1.384985
316.555786	1228.149780	3975.567139	1259.505493	1.141279
316.924866	1229.041382	3906.242920	1262.477539	1.248922
317.293884	1222.948608	3867.754150	1255.121460	1.216454
317.662872	1218.787598	3852.447510	1255.195801	1.382419
318.031830	1218.490234	3873.697998	1265.003906	1.751790
318.400757	1220.422241	3895.394531	1270.130737	1.858281
318.769684	1225.623413	3910.923584	1275.183228	1.845597
319.138550	1221.611084	3923.109375	1262.328979	1.507234
319.507416	1217.301392	3927.492920	1251.480835	1.261145
