Jaz Data File
++++++++++++++++++++++++++++++++++++
Date: Fri Jun 04 16:21:09 2021
User: jaz
Dark Spectrum Present: Yes
Reference Spectrum Present: Yes
Processed Spectrum Present: Yes
Spectrometers: JAZA3586
Integration Time (usec): 62000 (JAZA3586)
Spectra Averaged: 10 (JAZA3586)
Boxcar Smoothing: 1 (JAZA3586)
Correct for Electrical Dark: No (JAZA3586)
Strobe/Lamp Enabled: Yes (JAZA3586)
Correct for Detector Non-linearity: No (JAZA3586)
Correct for Stray Light: No (JAZA3586)
Number of Pixels in Processed Spectrum: 2048
>>>>>Begin Processed Spectral Data<<<<<
W	D	R	S	P
191.335022	0.000000	0.000000	0.000000	0.000000
191.713211	303.749542	300.480194	299.588593	127.271538
192.091385	607.053284	601.406250	601.629150	96.052788
192.469528	910.802795	909.242432	907.013367	242.855469
192.847641	907.979248	918.307373	914.517883	63.309025
193.225739	908.647949	930.121521	924.251648	72.664665
193.603790	914.220703	935.099792	931.681946	83.630287
193.981842	924.920227	939.855164	940.598206	104.975197
194.359863	935.694275	945.204895	949.217285	142.188522
194.737854	945.205017	947.879700	952.560852	275.017120
195.115829	950.257507	948.102600	943.273132	324.114868
195.493774	951.074890	953.452454	936.882996	-596.909180
195.871704	949.143005	961.105774	933.242188	-132.919220
196.249603	946.913879	966.901367	942.604309	-21.561340
196.627457	949.365906	957.762146	946.690918	-31.859352
197.005310	944.833435	947.359680	950.851990	238.241119
197.383133	956.944763	942.009827	948.771484	54.725903
197.760910	960.734192	944.684753	945.650818	93.980698
198.138687	968.684570	944.016052	948.622864	81.325142
198.516449	956.944641	947.211121	952.932434	41.220512
198.894180	948.251282	949.143005	954.344177	683.271729
199.271866	934.430969	947.211121	949.960266	121.511055
199.649536	933.093567	944.907715	946.839539	116.351784
200.027191	929.824219	943.718811	944.833313	108.021118
200.404816	931.830383	947.136780	936.660156	31.553951
200.782410	931.458984	965.118103	928.858337	-7.726426
201.159988	936.437256	969.724915	927.298035	-27.455284
201.537537	941.341248	981.984802	932.424866	-21.937998
201.915070	946.839600	973.068542	935.322693	-43.909153
202.292557	940.375244	978.566895	936.511536	-10.116632
202.670029	941.192566	976.337708	938.368958	-8.034136
203.047485	933.093567	979.309875	944.238953	24.115698
203.424911	932.945007	975.000305	944.164734	26.678509
203.802292	925.291809	979.904297	938.220459	23.673431
204.179688	928.709717	975.223145	927.743713	-2.076827
204.557037	928.486816	975.148865	931.533203	6.528618
204.934357	934.876892	970.765076	933.836609	-2.898679
205.311661	927.297913	970.765076	931.830383	10.427344
205.688934	928.783997	966.306946	920.759277	-21.386164
206.066177	925.663269	965.266785	919.942078	-14.446171
206.443390	929.081238	964.597961	927.000732	-5.857819
206.820587	932.276184	970.467834	932.127625	-0.388984
207.197769	929.229736	971.285156	928.263855	-2.296687
207.574921	925.291687	978.121033	923.285461	-3.797559
207.952042	918.010071	975.371826	918.381531	0.647574
208.329147	927.892334	969.947754	917.118469	-25.618256
208.706223	951.074768	988.820557	938.591980	-33.070679
209.083267	955.904480	987.706055	938.889160	-53.504646
209.460297	953.972656	996.696594	940.226624	-32.174076
209.837280	933.390808	967.644287	920.387878	-37.960903
210.214264	932.127625	966.083984	919.644775	-36.761448
210.591217	923.954346	963.632019	917.935791	-15.168618
210.968124	929.229797	965.712402	915.186523	-38.493069
211.345016	924.400146	970.987976	919.719055	-10.047885
211.721893	925.217529	969.576172	923.062744	-4.857645
212.098724	922.171082	971.210938	925.217529	6.212187
212.475555	928.709717	971.582336	924.845947	-9.012208
212.852356	934.876770	971.136536	919.050293	-43.647488
213.229126	932.722107	970.987976	917.861511	-38.835117
213.605865	925.811951	968.907532	915.409485	-24.138126
213.982590	920.684998	973.588623	916.152588	-8.567295
214.359283	919.570496	967.718689	915.335266	-8.796238
214.735931	923.731445	966.752747	916.672668	-16.407633
215.112579	924.251648	958.505127	916.003906	-24.078552
215.489197	925.143250	962.220276	920.759338	-11.823793
215.865799	923.508606	961.254333	920.239258	-8.661505
216.242355	921.205261	959.471008	919.347473	-4.854964
216.618896	921.502441	958.133606	919.124695	-6.491048
216.995407	924.177246	959.173828	914.815125	-26.751532
217.371902	926.332031	965.638123	920.164856	-15.690126
217.748367	932.350525	968.238770	916.003967	-45.548500
218.124802	935.842773	964.895203	920.685059	-52.173656
218.501236	933.093567	959.619690	916.226868	-63.585239
218.877609	924.697449	963.780701	922.468262	-5.703689
219.253983	920.462158	971.136658	921.799622	2.639322
219.630295	927.000793	973.291321	931.087402	8.828176
220.006592	928.561218	971.582336	926.480652	-4.836152
220.382889	928.783997	966.009705	927.892395	-2.395123
220.759140	928.263855	963.706299	927.297913	-2.725383
221.135391	928.635437	966.975586	923.434143	-13.566181
221.511581	925.737610	972.028137	919.273254	-13.964748
221.887772	921.502380	975.074646	922.691162	2.219025
222.263931	926.257751	973.588562	934.282410	16.954407
222.640060	931.310303	974.182922	933.985168	6.239100
223.016159	931.458923	975.668945	927.743835	-8.403271
223.392212	927.743835	973.588562	924.400146	-7.293509
223.768265	918.827454	969.278992	924.994568	12.223838
224.144302	921.056580	971.210876	927.075012	11.999834
224.520294	919.496155	971.730957	926.629150	13.655638
224.896286	924.474426	970.542175	924.102844	-0.806599
225.272217	925.960510	966.604065	921.650940	-10.603331
225.648148	925.886230	969.353333	921.948181	-9.059838
226.024048	925.143127	972.696960	924.474426	-1.406198
226.399902	916.375488	972.845520	925.366150	15.921121
226.775772	914.815125	968.758972	917.564392	5.096536
227.151581	920.610779	966.678406	916.672668	-8.548542
227.527374	921.428040	964.746521	920.536316	-2.058529
227.903137	918.084473	963.706299	924.102844	13.191869
228.278870	912.511719	956.573242	929.750000	39.123207
228.654572	915.260925	960.362610	921.650940	14.168017
229.030273	921.948059	960.659851	920.016296	-4.990114
229.405930	920.610657	969.873352	916.152588	-9.049583
229.781555	920.685059	972.994080	914.072083	-12.642133
230.157181	920.090576	977.600830	919.644775	-0.775167
230.532761	928.635437	978.789734	924.400146	-8.444522
230.908325	931.533203	969.576172	929.304138	-5.859335
231.283859	937.180176	962.517517	919.644775	-69.207733
231.659332	931.533203	957.687805	912.734619	-71.874863
232.034821	931.235901	958.728027	913.477722	-64.593689
232.410263	923.880066	963.037598	921.205139	-6.831193
232.785690	922.765442	971.805237	922.988464	0.454779
233.161087	924.474426	977.675110	923.880066	-1.117204
233.536469	926.257751	974.182922	921.799561	-9.302400
233.911804	926.480530	970.319275	916.672607	-22.372726
234.287140	919.793274	968.461670	907.161865	-25.954027
234.662430	926.480652	972.176758	913.849121	-27.642466
235.037704	929.304199	971.730957	922.171082	-16.812780
235.412933	937.997559	968.981750	929.601379	-27.098267
235.788162	930.567322	966.901367	917.341492	-36.400654
236.163345	927.892395	963.037537	914.369324	-38.477783
236.538513	915.929688	967.718689	920.982239	9.756031
236.913635	909.391052	971.582336	927.520935	29.151806
237.288742	914.517883	977.452332	932.499207	28.571512
237.663834	927.743713	975.743347	925.737549	-4.179542
238.038879	927.966614	974.703125	928.783936	1.748786
238.413910	927.297913	974.108643	929.006897	3.650839
238.788910	923.285645	977.229309	932.201965	16.528950
239.163879	936.139954	981.464600	933.242188	-6.393356
239.538834	928.040955	980.721619	925.811829	-4.231393
239.913757	927.075012	984.213867	921.130859	-10.402996
240.288651	915.781006	988.449036	918.455872	3.680939
240.663528	924.548645	992.535645	923.434265	-1.639107
241.038361	920.833679	991.272644	928.486816	10.864920
241.413177	928.783997	986.888855	929.824219	1.790250
241.787979	920.016357	985.625671	924.325867	6.568441
242.162735	922.022522	990.232422	921.056580	-1.416132
242.537476	916.598389	997.439697	920.313538	4.595607
242.912170	926.332031	1002.715149	926.554932	0.291819
243.286865	931.458923	998.034180	926.183350	-7.924226
243.661514	930.492981	987.185974	919.273193	-19.790430
244.036148	924.474426	981.167419	916.226807	-14.547864
244.410751	915.483887	981.761902	916.598389	1.681556
244.785339	924.846008	988.894836	928.338196	5.452383
245.159882	928.115295	991.495422	930.270020	3.399684
245.534378	934.876892	998.851379	927.669495	-11.266049
245.908890	931.310303	991.198242	916.672668	-24.441706
246.283356	926.926453	995.656433	911.620056	-22.270334
246.657791	913.106140	998.628601	916.598328	4.083357
247.032196	909.985352	1005.167175	923.508545	14.207747
247.406586	910.877014	1015.643860	929.452698	17.730497
247.780960	925.737610	1020.622253	928.338196	2.740787
248.155289	922.988342	1024.485962	919.273254	-3.660271
248.529602	918.158691	1014.009216	915.335144	-2.945782
248.903870	916.375488	997.885559	915.335205	-1.276263
249.278122	921.502441	993.724609	918.530212	-4.115397
249.652344	929.155579	993.204529	924.177246	-7.772700
250.026550	934.356750	998.034180	920.982239	-21.003536
250.400711	936.660095	1001.377747	924.474426	-18.828972
250.774857	929.006897	1000.114563	924.697449	-6.060455
251.148987	927.892395	995.210632	927.298035	-0.882911
251.523071	929.006897	994.913391	921.428040	-11.499409
251.897125	931.681824	992.164307	917.489990	-23.464371
252.271164	928.263855	997.439758	921.428040	-9.881787
252.645187	922.839783	994.244690	927.669434	6.763752
253.019165	916.895569	996.770996	925.068848	10.232533
253.393112	916.449768	1009.105225	923.880066	8.019278
253.767044	919.050354	1010.962830	920.610779	1.697729
254.140930	930.418701	1008.362244	929.452820	-1.239206
254.514801	930.938782	996.399475	928.412598	-3.859085
254.888657	932.127686	996.473816	931.161621	-1.501356
255.262466	932.945007	1002.640930	923.137024	-14.072536
255.636276	928.709717	1012.077332	922.914063	-6.951925
256.010010	923.657166	1014.529358	913.477600	-11.202068
256.383759	921.205139	1020.250671	913.031738	-8.252165
256.757446	923.285645	1015.049500	912.585938	-11.660046
257.131134	917.935791	1015.272400	928.932617	11.297729
257.504791	918.381653	1008.287903	929.229797	12.066063
257.878418	915.335205	1007.173340	925.886230	11.488719
258.252014	921.948181	1017.501465	918.976074	-3.110418
258.625580	930.938782	1027.160767	919.124695	-12.277949
258.999115	934.356689	1035.259766	921.428040	-12.812940
259.372650	934.951172	1044.547607	921.576660	-12.203419
259.746124	924.103027	1050.937622	919.124695	-3.925059
260.119598	922.319641	1058.813721	918.084473	-3.102822
260.493042	930.195740	1056.064575	914.963806	-12.101434
260.866425	933.093567	1063.346191	919.644836	-10.325113
261.239838	929.601318	1071.668091	924.177246	-3.817974
261.613159	913.923523	1076.200562	929.452820	9.569620
261.986511	915.409485	1066.541260	933.167908	11.750291
262.359802	923.285645	1058.070679	932.350525	6.725435
262.733063	936.808655	1047.817017	928.338196	-7.630469
263.106293	929.378418	1045.959473	916.152527	-11.344803
263.479523	926.331970	1050.491943	911.694397	-11.789285
263.852692	919.347595	1052.720947	908.796631	-7.910849
264.225861	923.062683	1054.652954	919.942078	-2.371456
264.598969	917.489990	1048.634399	919.793457	1.756435
264.972076	915.112305	1046.479492	925.811951	8.144839
265.345154	917.564270	1052.126587	922.765442	3.865252
265.718201	921.873840	1053.612671	922.616882	0.564027
266.091217	929.155518	1062.826172	929.007019	-0.111093
266.464203	920.016296	1062.157349	931.087402	7.788816
266.837158	922.542542	1066.764160	934.876892	8.552359
267.210114	921.502258	1066.764160	925.217468	2.557594
267.583038	932.350586	1068.918945	926.257751	-4.461381
267.955902	936.288574	1071.073730	931.979004	-3.197363
268.328766	935.471252	1072.782715	934.579590	-0.649372
268.701569	928.709717	1065.203735	934.282410	4.082738
269.074371	923.137024	1062.900391	925.663269	1.807516
269.447144	924.920227	1070.405029	918.753174	-4.238967
269.819885	925.366028	1088.757813	911.843018	-8.276432
270.192596	926.109070	1096.708130	912.808899	-7.796157
270.565277	921.725281	1100.869019	920.982239	-0.414774
270.937927	921.948059	1102.355103	924.994629	1.688720
271.310577	926.109070	1112.906128	925.366150	-0.397715
271.683136	925.886169	1123.011230	919.867676	-3.053135
272.055725	925.514648	1135.568481	920.982239	-2.157737
272.428284	914.963684	1148.868652	918.753113	1.620072
272.800812	925.068848	1154.144165	925.366028	0.129730
273.173279	935.768494	1149.091675	926.852234	-4.179696
273.545776	941.043945	1142.552856	932.201965	-4.387886
273.918152	931.830383	1134.008179	929.155518	-1.323026
274.290558	924.771667	1134.528198	929.006897	2.019117
274.662964	925.960449	1130.292969	927.446594	0.727317
275.035278	927.520813	1128.509766	925.811951	-0.850227
275.407593	921.948181	1129.624390	926.406433	2.146732
275.779907	921.799561	1134.602661	929.007019	3.386914
276.152161	921.130859	1134.974121	930.715820	4.482236
276.524384	924.623047	1145.079224	928.635437	1.820040
276.896606	921.205139	1146.268066	924.697266	1.551622
277.268799	917.935791	1159.122437	928.486816	4.374631
277.640930	926.257813	1159.196777	918.976074	-3.126029
278.013031	935.842773	1159.345337	916.078308	-8.843060
278.385162	940.821045	1164.249390	911.620117	-13.069482
278.757233	937.626038	1164.472290	919.941956	-7.795625
279.129272	925.217468	1174.057251	921.205139	-1.612415
279.501282	920.387878	1173.537231	920.239258	-0.058709
279.873230	918.753174	1179.704346	917.564270	-0.455604
280.245178	924.994568	1182.750732	913.180481	-4.583435
280.617126	933.019226	1195.828003	908.127930	-9.471257
280.988983	928.263855	1205.487427	913.774902	-5.226450
281.360870	937.328796	1221.759644	916.672668	-7.262267
281.732697	926.852112	1223.468628	923.657043	-1.077171
282.104492	928.041016	1235.579956	921.650879	-2.077830
282.476288	918.976074	1237.214600	925.737549	2.124656
282.848053	929.675598	1254.081299	928.412415	-0.389384
283.219757	933.762390	1263.666382	928.783997	-1.509043
283.591461	939.780762	1269.610596	928.040955	-3.559353
283.963135	937.848938	1269.684937	924.474426	-4.030458
284.334747	946.245117	1264.557983	922.393982	-7.492985
284.706360	943.198730	1269.982056	923.805664	-5.934534
285.077942	934.579590	1271.839722	924.771667	-2.908118
285.449524	923.582825	1285.882935	920.016357	-0.984396
285.821014	922.616943	1290.043823	919.867676	-0.748249
286.192535	929.304199	1304.607056	918.307312	-2.930137
286.563995	929.081238	1312.557495	922.245422	-1.782592
286.935425	930.790222	1321.696777	923.582825	-1.843765
287.306824	926.480652	1318.798950	926.777832	0.075750
287.678223	931.310242	1304.978638	924.474426	-1.829380
288.049561	928.635437	1304.458618	924.548767	-1.087392
288.420898	929.304138	1305.276001	925.440430	-1.027659
288.792145	926.777832	1309.585449	934.802551	2.096280
289.163452	926.554871	1313.374878	929.155579	0.672330
289.534668	923.508484	1324.594604	924.028625	0.129683
289.905914	919.793457	1340.866821	918.455994	-0.317632
290.277039	924.028625	1363.232056	927.669434	0.828957
290.648193	933.836609	1370.439453	932.721985	-0.255295
291.019318	930.567200	1371.851074	938.814880	1.869019
291.390381	922.468262	1366.278320	936.288574	3.114015
291.761475	919.644775	1367.838745	935.619873	3.564327
292.132507	917.192688	1376.903809	929.229797	2.618407
292.503510	924.251465	1372.965698	922.765442	-0.331174
292.874481	927.297852	1382.253540	926.109131	-0.261283
293.245422	935.545593	1391.169922	927.298035	-1.810166
293.616364	927.297913	1400.903442	928.338196	0.219652
293.987213	925.143127	1399.566040	920.907959	-0.892699
294.358093	924.028625	1417.175781	919.347595	-0.949216
294.728943	927.595215	1430.773071	916.152527	-2.274084
295.099731	926.406311	1455.887573	922.171082	-0.799883
295.470490	927.149353	1470.302246	926.332031	-0.150477
295.841248	924.771667	1500.692017	929.749939	0.864403
296.211975	918.530273	1518.078735	925.663269	1.189728
296.582642	915.855286	1530.264648	918.530273	0.435375
296.953308	919.719055	1535.688843	920.016296	0.048256
297.323883	926.852112	1548.022949	917.192810	-1.555015
297.694519	931.458923	1553.224121	922.542542	-1.434043
298.065063	930.790222	1568.456055	923.582764	-1.130288
298.435608	926.109131	1559.242676	929.452820	0.528117
298.806122	920.387878	1542.152954	929.452820	1.457937
299.176575	926.257751	1508.345093	928.858337	0.446769
299.547028	927.743835	1490.809937	930.047180	0.409072
299.917450	926.703613	1487.540405	924.102966	-0.463708
300.287872	924.251526	1481.447632	926.703552	0.440065
300.658234	922.393982	1473.942993	918.158691	-0.767890
301.028564	924.325867	1469.187866	913.774902	-1.936447
301.398865	916.821289	1477.138184	907.830627	-1.604567
301.769135	921.428040	1489.695313	912.586121	-1.555944
302.139374	925.291748	1499.057251	921.353760	-0.686341
302.509583	924.102966	1495.490845	921.130859	-0.520156
302.879791	924.325867	1494.153442	915.186584	-1.603868
303.249939	915.186584	1486.574585	915.112305	-0.013000
303.620087	920.164856	1487.391968	914.666443	-0.969350
303.990173	918.753113	1489.695190	921.576599	0.494531
304.360260	931.681702	1487.986328	918.455872	-2.377444
304.730286	936.437195	1490.661133	919.421875	-3.070116
305.100281	934.951172	1481.596191	924.845947	-1.848590
305.470276	933.985168	1493.930298	930.641541	-0.597135
305.840179	930.938782	1498.017212	933.539368	0.458594
306.210144	931.607605	1503.961304	922.468262	-1.596800
306.579987	928.932617	1503.664185	923.508484	-0.943768
306.949890	925.663269	1509.608398	922.691223	-0.508960
307.319702	920.536377	1523.280151	927.000732	1.072488
307.689484	917.415710	1536.134399	925.366150	1.284985
308.059265	918.901672	1544.159180	928.561096	1.544871
308.429016	921.130798	1559.837036	930.641602	1.489073
308.798737	924.845886	1583.762573	930.195801	0.811926
309.168396	925.663269	1603.304077	927.595215	0.285099
309.538055	931.756104	1621.805542	924.251526	-1.087542
309.907684	930.864502	1627.303833	915.409485	-2.219148
310.277313	930.270081	1642.313110	912.660339	-2.473129
310.646851	923.582825	1664.232056	911.842957	-1.585078
311.016388	923.508606	1677.235352	913.774841	-1.291418
311.385895	919.496155	1685.037109	918.084412	-0.184411
311.755371	924.697327	1683.253906	923.434265	-0.166509
312.124817	922.468262	1685.557251	930.790222	1.090562
312.494232	933.093567	1682.585083	930.047119	-0.406469
312.863617	924.920349	1680.950562	927.298035	0.314496
313.232971	924.548828	1677.903931	926.926453	0.315605
313.602295	919.050354	1676.343628	924.177246	0.677002
313.971619	929.527039	1670.622437	921.650940	-1.062765
314.340820	931.161804	1674.485962	923.582764	-1.019614
314.710083	937.923157	1689.643921	929.006897	-1.186113
315.079285	931.681824	1706.139160	934.208191	0.326211
315.448486	930.715881	1711.265991	930.938782	0.028557
315.817596	924.400208	1709.111206	928.783997	0.558650
316.186707	923.508545	1703.612793	926.034851	0.323842
316.555786	928.189636	1687.043335	929.378418	0.156655
316.924866	931.384583	1668.170532	930.715881	-0.090759
317.293884	936.511536	1645.285156	932.796387	-0.524166
317.662872	931.904602	1651.898071	926.852234	-0.701724
318.031830	928.115234	1650.932129	919.421875	-1.202706
318.400757	923.136963	1666.238647	917.638672	-0.739911
318.769684	919.347473	1674.708984	917.118469	-0.295091
319.138550	912.288818	1692.690430	921.799500	1.218691
319.507416	919.644775	1701.903809	916.598328	-0.389442
319.876190	921.130859	1704.578735	916.969910	-0.531107
320.244995	929.972839	1711.934570	917.044189	-1.653361
320.613770	929.898621	1707.253540	926.406311	-0.449255
320.982483	928.041016	1702.052368	929.898621	0.239997
321.351166	919.644775	1692.318726	927.446594	1.009717
321.719818	919.644836	1682.213501	920.239258	0.077950
322.088440	919.050293	1677.903931	924.697449	0.744169
322.457062	922.691162	1682.510742	931.756165	1.193047
322.825623	917.861511	1707.253540	933.242188	1.948421
323.194183	922.914063	1730.584839	921.725281	-0.147186
323.562653	920.462097	1757.110840	917.564270	-0.346361
323.931183	922.468262	1772.491333	913.774902	-1.022720
