Jaz Data File
++++++++++++++++++++++++++++++++++++
Date: Fri Jun 04 16:18:34 2021
User: jaz
Dark Spectrum Present: Yes
Reference Spectrum Present: Yes
Processed Spectrum Present: Yes
Spectrometers: JAZA3586
Integration Time (usec): 40000 (JAZA3586)
Spectra Averaged: 10 (JAZA3586)
Boxcar Smoothing: 1 (JAZA3586)
Correct for Electrical Dark: No (JAZA3586)
Strobe/Lamp Enabled: Yes (JAZA3586)
Correct for Detector Non-linearity: No (JAZA3586)
Correct for Stray Light: No (JAZA3586)
Number of Pixels in Processed Spectrum: 2048
>>>>>Begin Processed Spectral Data<<<<<
W	D	R	S	P
191.335022	0.000000	0.000000	0.000000	0.000000
191.713211	302.709259	311.922791	302.634979	-0.806203
192.091385	614.260559	623.697021	614.632141	3.937726
192.469528	925.737549	936.511475	927.149414	13.104465
192.847641	941.043945	939.334961	938.146179	169.560715
193.225739	943.644531	952.486572	943.941711	3.360991
193.603790	944.016113	964.152100	953.675354	47.970039
193.981842	948.622864	970.021973	963.557617	69.791473
194.359863	958.876648	966.455505	961.625793	36.273880
194.737854	973.662903	971.953857	959.099426	852.140991
195.115829	975.297607	974.554504	969.055969	839.942505
195.493774	979.532715	978.195313	981.093079	-116.671234
195.871704	981.613220	970.690735	980.350098	11.564425
196.249603	985.922791	974.554504	968.907471	149.673569
196.627457	980.721680	972.399658	969.056091	140.177338
197.005310	977.675293	975.000305	970.467834	269.438934
197.383133	973.142761	974.108704	969.427551	-384.620239
197.760910	981.613220	970.913757	967.272766	134.029663
198.138687	975.669006	967.867249	967.347107	106.666977
198.516449	972.771179	966.158203	967.867188	74.157104
198.894180	962.220215	971.582336	963.111816	9.523499
199.271866	966.083984	966.381104	963.929199	-725.225952
199.649536	964.152161	962.591736	960.362610	242.853790
200.027191	959.545410	962.071594	961.625793	82.352798
200.404816	956.053040	967.272888	962.740417	59.603104
200.782410	950.777649	981.687683	975.520508	80.047981
201.159988	955.755920	997.811279	986.294373	72.614891
201.537537	953.303955	1012.523193	988.003235	58.594608
201.915070	964.523621	1007.321960	984.585388	46.875107
202.292557	958.282227	998.182678	975.891907	44.134037
202.670029	960.659912	993.501648	973.811462	40.045235
203.047485	948.771484	991.049622	971.805359	54.481762
203.424911	953.303955	989.563660	974.851746	59.426273
203.802292	955.904541	989.340637	974.926025	56.889072
204.179688	961.254333	992.015625	977.080750	51.449127
204.557037	959.768250	994.764832	977.600891	50.955379
204.934357	958.653748	996.176575	982.356262	63.168255
205.311661	961.848694	999.074402	981.836121	53.692535
205.688934	962.294617	996.993958	977.898132	44.967758
206.066177	960.362732	998.405701	984.213867	62.695251
206.443390	955.681641	1001.600647	981.093201	55.339962
206.820587	951.743591	1001.600647	983.025085	62.742363
207.197769	950.331848	991.272644	974.405945	58.802219
207.574921	950.480286	994.319031	973.885742	53.389889
207.952042	943.793152	992.387024	972.994080	60.091789
208.329147	939.112061	993.353027	977.229309	70.273911
208.706223	954.492676	992.535706	988.374817	89.062675
209.083267	968.535889	993.724609	989.192139	82.005951
209.460297	972.102356	994.021790	984.956848	58.644272
209.837280	954.715576	986.740051	970.542175	49.420322
210.214264	943.644531	987.334473	967.124207	53.741604
210.591217	945.204895	989.563660	962.963196	40.033352
210.968124	945.873596	985.402649	973.588562	70.112900
211.345016	956.870422	987.260254	972.399719	51.100307
211.721893	954.938660	991.495605	972.696838	48.576756
212.098724	953.824036	997.439758	967.792908	32.027149
212.475555	952.560852	995.210632	967.049866	33.972073
212.852356	950.480408	987.928955	972.548340	58.928673
213.229126	952.858093	983.990906	979.607117	85.919075
213.605865	942.678528	983.247864	986.814453	108.791344
213.982590	943.124451	986.219971	986.814453	101.379456
214.359283	946.319519	983.247864	976.189148	80.885368
214.735931	942.381409	982.727783	973.885742	78.084671
215.112579	937.700378	985.105469	970.393494	68.965408
215.489197	934.876770	988.895020	966.826965	59.147038
215.865799	950.108887	995.507813	967.792969	38.952644
216.242355	955.755859	994.913391	963.334778	19.354944
216.618896	955.012878	990.455261	968.684570	38.574413
216.995407	939.557922	978.715393	960.065430	52.371891
217.371902	937.105957	977.898132	968.610291	77.231316
217.748367	939.409363	982.579163	966.826965	63.511070
218.124802	948.622864	984.511047	966.901306	50.931644
218.501236	951.966492	989.637939	962.888977	28.994068
218.877609	951.297852	990.009460	962.888916	29.942089
219.253983	951.817932	995.804993	969.427551	40.033634
219.630295	947.285339	992.387146	969.055969	48.269974
220.006592	949.068604	994.839111	966.529724	38.149284
220.382889	951.743591	992.164246	969.576172	44.117496
220.759140	955.087158	987.706116	970.021973	45.785690
221.135391	945.427795	989.712219	973.142761	62.584003
221.511581	942.158447	992.015625	969.056091	53.949390
221.887772	938.889160	997.216797	967.867249	49.681576
222.263931	945.873718	998.108459	968.090149	42.531906
222.640060	939.780823	1005.538757	968.610291	43.841808
223.016159	939.037842	1010.888489	971.656677	45.398109
223.392212	940.895447	1009.328125	972.994141	46.905506
223.768265	952.858093	1001.303467	966.158264	27.453955
224.144302	959.916809	992.758728	965.861084	18.099657
224.520294	958.802246	991.569824	967.644348	26.984301
224.896286	952.635193	994.467590	971.210876	44.405018
225.272217	952.040710	993.724609	971.879578	47.593597
225.648148	951.372009	997.439758	970.616516	41.774361
226.024048	950.926208	997.291199	973.588623	48.878292
226.399902	953.824036	999.817383	972.102539	39.741623
226.775772	953.303894	991.123962	966.975586	36.149303
227.151581	948.399902	991.346863	970.319275	51.038239
227.527374	942.158447	984.213806	971.433777	69.611412
227.903137	933.019226	987.185852	980.721619	88.066025
228.278870	942.530029	990.529541	978.195313	74.303429
228.654572	943.718811	999.074402	977.006531	60.134342
229.030273	953.972595	997.737000	974.777527	47.538479
229.405930	950.406067	990.232422	976.857910	66.417938
229.781555	946.542419	990.604004	972.771240	59.527637
230.157181	940.598145	997.142578	968.907471	50.065628
230.532761	937.328857	994.541992	964.969421	48.311569
230.908325	939.483643	988.895020	966.604004	54.886875
231.283859	943.124451	983.545166	965.117981	54.411533
231.659332	947.582581	991.495422	968.090149	46.700619
232.034821	944.387512	996.102234	971.285156	52.011581
232.410263	942.307129	995.656433	972.845520	57.242340
232.785690	948.028503	986.517151	969.576355	55.984955
233.161087	957.464844	984.213806	968.238770	40.277920
233.536469	955.978821	984.065247	973.217041	61.375629
233.911804	957.019104	987.111633	977.898010	69.382355
234.287140	958.579407	999.148682	976.114746	43.223202
234.662430	965.861084	1005.687256	971.953796	15.298263
235.037704	955.384338	1002.566650	970.319153	31.653418
235.412933	951.074768	990.901123	974.182922	58.022266
235.788162	940.449524	984.956848	977.303650	82.804634
236.163345	944.090393	994.096130	982.950684	77.711662
236.538513	943.495911	1003.978333	983.396484	65.970528
236.913635	949.737488	1009.551086	976.114807	44.099201
237.288742	943.718933	1006.281738	970.987976	43.586670
237.663834	935.396973	1004.869934	970.690735	50.802155
238.038879	934.728271	1003.532532	975.000305	58.531307
238.413910	935.025452	1013.266174	974.034363	49.857555
238.788910	941.861328	1008.956543	979.235535	55.703236
239.163879	935.248352	1011.185730	985.105469	65.655571
239.538834	939.260681	999.445862	981.761902	70.617416
239.913757	935.917053	1003.978333	974.554443	56.768532
240.288651	949.663086	1002.640930	958.653625	16.970377
240.663528	954.864258	1010.442688	962.591797	13.903846
241.038361	959.991150	1009.551086	965.415283	10.944592
241.413177	955.161438	1004.795715	981.167480	52.395329
241.787979	953.452454	1000.709167	981.984680	60.377087
242.162735	954.789856	996.845398	982.504883	65.901009
242.537476	952.932373	1002.417969	975.074524	44.744640
242.912170	953.601074	1010.888489	975.297546	37.873016
243.286865	954.195557	1017.352783	979.309814	39.764664
243.661514	955.755859	1018.393066	984.288086	45.551563
244.036148	951.594910	1016.758484	983.545105	49.030758
244.410751	952.560852	1018.838928	977.675110	37.892254
244.785339	947.805481	1021.885315	973.142639	34.202503
245.159882	951.669250	1014.529297	982.281921	48.699726
245.534378	944.684875	1009.179504	973.885803	45.276527
245.908890	950.183167	1006.058838	973.291443	41.356598
246.283356	946.913879	1007.842102	961.625793	24.146305
246.657791	945.650696	1010.591309	964.969482	29.748390
247.032196	938.740540	1018.170105	969.724854	39.008541
247.406586	931.013123	1030.132935	974.034363	43.403271
247.780960	936.139954	1043.581665	977.006531	38.036045
248.155289	939.929382	1048.634277	971.953857	29.460012
248.529602	944.090332	1046.405151	969.947693	25.272352
248.903870	940.895325	1037.711792	966.232605	26.170424
249.278122	938.146179	1027.755249	972.028137	37.810860
249.652344	946.096497	1018.467468	970.021973	33.059494
250.026550	953.675476	1008.882385	967.718567	25.437199
250.400711	960.139709	1010.591309	967.198547	13.991306
250.774857	949.068665	1017.947266	972.845520	34.519947
251.148987	933.465088	1023.371399	989.712219	62.561939
251.523071	925.737610	1020.919434	983.619446	60.811859
251.897125	937.626038	1020.845032	977.155090	47.500038
252.271164	945.650696	1019.284668	966.529785	28.355240
252.645187	950.703308	1023.222839	968.684570	24.795061
253.019165	939.632263	1026.120605	970.765076	35.996544
253.393112	942.678650	1034.814087	973.439941	33.387035
253.767044	951.223450	1036.968750	973.217102	25.649981
254.140930	957.093445	1030.950317	982.504883	34.406330
254.514801	951.297791	1028.646851	985.551270	44.284286
254.888657	942.158508	1032.510620	988.449036	51.233475
255.262466	941.564148	1041.129761	985.922791	44.552170
255.636276	942.009827	1040.832520	981.241760	39.699318
256.010010	945.204895	1040.758179	979.755676	36.158653
256.383759	944.238953	1037.043091	974.182922	32.265770
256.757446	952.337891	1043.730347	977.080811	27.073263
257.131134	948.325623	1045.142090	985.477051	38.373047
257.504791	948.399902	1056.436035	983.247986	32.255951
257.878418	945.130615	1054.652832	977.749512	29.782904
258.252014	952.040710	1057.253418	975.446106	22.245789
258.625580	957.687805	1056.956177	970.319153	12.724443
258.999115	954.344177	1066.244141	975.223206	18.658655
259.372650	953.303894	1078.132446	974.628723	17.083294
259.746124	949.514465	1091.729858	980.721619	21.943583
260.119598	957.093323	1097.896973	978.492493	15.197880
260.493042	952.115051	1107.407715	975.966248	15.358869
260.866425	953.006653	1109.711182	979.012695	16.595591
261.239838	949.811707	1114.020752	980.870300	18.914059
261.613159	944.610535	1108.299438	983.322266	23.649576
261.986511	936.808777	1103.023926	980.127258	26.061693
262.359802	935.248352	1095.593628	977.675293	26.459738
262.733063	943.867493	1088.311890	975.966309	22.222265
263.106293	951.520691	1089.203613	981.464661	21.748499
263.479523	948.919983	1095.370605	981.018860	21.917883
263.852692	940.523743	1094.776245	972.919861	21.002005
264.225861	938.220398	1090.466797	970.839355	21.425110
264.598969	947.731140	1081.773438	971.879578	18.015535
264.972076	949.811707	1083.630981	969.724792	14.880581
265.345154	948.771484	1081.104614	968.758972	15.103918
265.718201	944.164734	1089.277954	969.130371	17.204247
266.091217	949.143005	1100.348999	974.628906	16.855087
266.464203	948.399963	1106.739136	974.405945	16.424225
266.837158	945.502136	1116.695557	976.486328	18.098938
267.210114	938.666260	1120.113525	975.223328	20.147490
267.583038	943.793152	1134.676758	975.297607	16.504538
267.955902	948.622803	1136.757324	978.566895	15.916320
268.328766	956.647461	1131.779053	986.888855	17.267813
268.701569	952.263611	1130.292969	987.557434	19.824720
269.074371	947.879700	1143.964722	981.538879	17.165606
269.447144	949.440186	1153.698364	977.972473	13.968737
269.819885	950.554749	1159.494019	977.080811	12.695584
270.192596	948.177063	1156.893433	981.316101	15.877546
270.565277	940.449524	1168.410278	980.275879	17.470707
270.937927	942.307129	1185.128418	978.938293	15.085648
271.310577	942.604309	1205.561646	977.749512	13.365363
271.683136	948.548523	1221.165161	982.727783	12.537481
272.055725	949.960266	1232.161987	986.368652	12.901546
272.428284	952.263672	1236.917480	987.854675	12.503259
272.800812	951.817871	1244.273315	992.684326	13.973566
273.173279	947.582703	1239.740845	989.786621	14.445573
273.545776	953.675476	1235.802856	990.529602	13.062939
273.918152	952.189453	1229.338501	985.997131	12.198375
274.290558	944.684814	1225.028931	987.037354	15.107340
274.662964	938.666321	1226.812134	984.065247	15.755539
275.035278	939.112122	1221.759644	979.755676	14.379590
275.407593	940.821045	1228.149658	977.452209	12.748875
275.779907	948.697205	1232.607910	985.179749	12.850006
276.152161	947.434021	1244.942017	984.436707	12.437543
276.524384	959.248108	1255.270142	983.916565	8.333318
276.896606	948.177063	1259.431152	982.653503	11.076622
277.268799	948.994324	1266.861450	987.557434	12.131833
277.640930	946.690918	1262.254517	989.043518	13.421256
278.013031	942.827148	1269.313354	981.687561	11.902620
278.385162	942.752869	1267.752930	979.161316	11.202597
278.757233	945.799316	1281.870483	984.288086	11.452565
279.129272	952.040771	1280.607300	985.774109	10.266821
279.501282	953.452454	1287.889038	983.247864	8.909136
279.873230	943.644531	1300.297729	973.811462	8.458338
280.245178	944.981995	1317.164429	976.857910	8.564594
280.617126	941.489746	1335.071289	980.721680	9.967930
280.988983	945.576416	1340.049683	987.037292	10.510440
281.360870	949.365906	1364.792358	984.585266	8.477881
281.732697	946.616699	1386.340210	980.424316	7.688381
282.104492	947.582703	1414.203735	982.950684	7.579594
282.476288	945.947937	1431.070435	981.241699	7.275227
282.848053	946.542297	1431.962036	991.198303	9.199462
283.219757	947.582520	1432.853638	984.288086	7.563930
283.591461	944.238953	1426.835083	988.597656	9.191683
283.963135	951.372009	1433.596680	985.328369	7.041605
284.334747	951.669189	1433.893921	984.511047	6.810488
284.706360	948.028381	1443.553223	986.814453	7.827271
285.077942	947.359680	1460.717163	984.882568	7.309309
285.449524	943.273132	1486.203125	991.495422	8.881862
285.821014	947.434021	1500.171875	987.483154	7.245593
286.192535	944.238953	1528.555664	985.625549	7.082905
286.563995	944.907715	1542.004395	979.755676	5.836235
286.935425	949.960266	1561.694702	975.520325	4.178293
287.306824	950.703308	1560.654297	979.235535	4.677790
287.678223	949.365906	1551.515015	976.857849	4.565637
288.049561	940.523865	1535.465820	979.904297	6.619206
288.420898	934.059570	1525.880737	976.635010	7.193970
288.792145	936.214294	1527.812500	982.579102	7.837212
289.163452	940.077942	1538.512207	978.641052	6.444001
289.534668	941.861267	1550.549194	973.068359	5.126945
289.905914	935.471252	1582.127808	976.560730	6.354142
290.277039	933.910889	1609.248413	987.706055	7.965671
290.648193	939.780823	1636.294434	1001.600769	8.875627
291.019318	945.873718	1641.569946	997.514099	7.422835
291.390381	950.108887	1657.990845	997.291077	6.665262
291.761475	951.743591	1652.864136	988.894836	5.298839
292.132507	954.418457	1653.458496	992.238464	5.410278
292.503510	957.390564	1632.876587	985.179749	4.113954
292.874481	956.721863	1629.161499	988.969238	4.795579
293.245422	957.687805	1626.560913	987.557434	4.465664
293.616364	952.189453	1642.907593	987.706116	5.141991
293.987213	954.567078	1657.025024	981.613342	3.850233
294.358093	941.935608	1692.690308	979.012756	4.938650
294.728943	944.684814	1731.104858	978.121094	4.251708
295.099731	941.043945	1775.017700	978.789795	4.526024
295.470490	947.433899	1808.602539	980.721619	3.865412
295.841248	939.780762	1822.497070	977.823730	4.309762
296.211975	939.855164	1834.905640	978.195251	4.283567
296.582642	943.198730	1861.654785	981.315979	4.150144
296.953308	946.839600	1899.697754	983.768005	3.875541
297.323883	950.703369	1949.629272	990.752441	4.009213
297.694519	953.601135	1959.585571	990.678223	3.685652
298.065063	954.195557	1963.598022	998.777161	4.416633
298.435608	946.988098	1941.455688	994.987732	4.826666
298.806122	939.483582	1913.815063	995.062012	5.704263
299.176575	938.369080	1872.205688	991.272644	5.665184
299.547028	936.288574	1846.274048	992.461426	6.172939
299.917450	940.821045	1821.456909	989.712341	5.551817
300.287872	943.495911	1814.100952	987.631775	5.069562
300.658234	949.440186	1806.819214	991.495544	4.905107
301.028564	955.904541	1813.432129	990.380920	4.020440
301.398865	950.703308	1820.639648	991.198303	4.654938
301.769135	945.502136	1812.466309	982.950684	4.319503
302.139374	942.901550	1813.580933	982.059082	4.497354
302.509583	942.307129	1814.249512	992.461426	5.752019
302.879791	951.743469	1815.661255	994.764832	4.979798
303.249939	952.189392	1817.147339	995.359314	4.990985
303.620087	951.817871	1814.843750	991.124023	4.554458
303.990173	943.570313	1811.500366	985.625549	4.845464
304.360260	938.517761	1808.676758	987.780334	5.661330
304.730286	946.022278	1810.608765	980.127136	3.944644
305.100281	949.960266	1819.599121	984.808289	4.007183
305.470276	947.433899	1824.503296	982.281921	3.973234
305.840179	944.981934	1834.682617	983.322083	4.309331
306.210144	935.768372	1849.171753	981.687500	5.027256
306.579987	937.774597	1861.060181	992.833008	5.963313
306.949890	943.347351	1866.855835	987.260254	4.755008
307.319702	951.149231	1870.125122	980.052917	3.145206
307.689484	954.864441	1895.759766	975.520508	2.195363
308.059265	950.851990	1914.261108	978.789795	2.899890
308.429016	948.622803	1952.898438	987.483154	3.869491
308.798737	941.712646	1978.087036	981.464661	3.835681
309.168396	942.009949	2013.306519	987.928955	4.286302
309.538055	936.808777	2036.563477	987.111633	4.574007
309.907684	941.638367	2059.820068	985.997070	3.967039
310.277313	935.619812	2080.922119	977.006409	3.613596
310.646851	946.765320	2104.996094	976.189148	2.540412
311.016388	944.610535	2121.194092	983.099304	3.271231
311.385895	946.988220	2124.834961	996.028015	4.163513
311.755371	943.495911	2118.816406	996.027893	4.469588
312.124817	941.638367	2125.503418	995.730774	4.569137
312.494232	946.839539	2122.085449	990.901062	3.749132
312.863617	943.198730	2120.896729	991.792725	4.126184
313.232971	947.359680	2105.293213	993.427429	3.978445
313.602295	947.136719	2111.757568	999.966064	4.536184
313.971619	957.167664	2120.822510	1001.080566	3.773705
314.340820	957.241943	2122.383057	1006.207458	4.202539
314.710083	951.297791	2133.454346	1002.789551	4.355748
315.079285	946.319397	2145.937012	1010.219788	5.326730
315.448486	945.576416	2182.270752	995.953796	4.073552
315.817596	948.474182	2189.180908	987.706116	3.162063
316.186707	943.941711	2180.710205	983.024963	3.160110
316.555786	950.257507	2142.741943	990.083740	3.339770
316.924866	949.960266	2113.243896	996.028015	3.960147
317.293884	952.337952	2093.702148	994.541931	3.697678
317.662872	943.198730	2086.494873	997.142578	4.718274
318.031830	938.517578	2089.095459	1000.188965	5.360036
318.400757	938.889160	2103.064453	1002.046570	5.425077
318.769684	944.016113	2119.039307	1002.715149	4.995564
319.138550	945.799316	2142.593018	1002.269348	4.718443
319.507416	944.833435	2152.921143	1004.052734	4.901904
319.876190	942.901550	2158.419922	1005.761658	5.171465
320.244995	947.136780	2165.032959	1009.996887	5.161368
320.613770	954.567078	2154.853271	1018.170227	5.298999
320.982483	956.721863	2146.754150	1022.331116	5.513233
321.351166	954.418457	2119.410889	1027.160767	6.244016
321.719818	949.068604	2111.237549	1034.591187	7.358877
322.088440	949.142883	2119.262451	1040.089478	7.772418
322.457062	948.102722	2138.729736	1042.095581	7.894401
322.825623	949.068665	2164.884033	1040.758179	7.541401
323.194183	948.474304	2192.450439	1048.039917	8.003820
323.562653	948.399963	2229.676025	1051.829346	8.072372
323.931183	944.759094	2267.793213	1057.104858	8.491524
