Jaz Data File
++++++++++++++++++++++++++++++++++++
Date: Fri Jun 04 16:50:10 2021
User: jaz
Dark Spectrum Present: Yes
Reference Spectrum Present: Yes
Processed Spectrum Present: Yes
Spectrometers: JAZA3586
Integration Time (usec): 24900 (JAZA3586)
Spectra Averaged: 10 (JAZA3586)
Boxcar Smoothing: 1 (JAZA3586)
Correct for Electrical Dark: No (JAZA3586)
Strobe/Lamp Enabled: Yes (JAZA3586)
Correct for Detector Non-linearity: No (JAZA3586)
Correct for Stray Light: No (JAZA3586)
Number of Pixels in Processed Spectrum: 2048
>>>>>Begin Processed Spectral Data<<<<<
W	D	R	S	P
191.335022	0.000000	0.000000	0.000000	0.000000
191.713211	231.155762	234.127869	234.053589	97.500771
192.091385	464.763519	467.438385	466.249603	55.557331
192.469528	701.492004	705.652893	704.984192	83.928886
192.847641	713.603333	712.860291	710.259766	449.983582
193.225739	723.857117	731.064453	726.086243	30.928568
193.603790	734.482422	738.271790	733.070618	-37.256985
193.981842	733.739441	737.900330	743.993164	246.431091
194.359863	736.117004	734.185120	747.188171	-573.075928
194.737854	737.974609	738.123230	748.005554	6749.363281
195.115829	740.500916	744.736145	747.411072	163.158951
195.493774	744.141785	746.147949	752.612244	422.221558
195.871704	743.472961	746.593750	756.847473	428.561920
196.249603	746.445068	755.361511	763.088867	186.664108
196.627457	747.188171	758.556458	749.120056	16.993633
197.005310	747.188171	764.203430	749.491516	13.536936
197.383133	750.606140	760.339783	741.392517	-94.657501
197.760910	754.246887	757.293274	742.655762	-380.487671
198.138687	752.909485	756.327393	738.494812	-421.739685
198.516449	751.943542	754.989990	733.665100	-599.992004
198.894180	745.330566	752.612305	745.107666	-3.061088
199.271866	748.154053	751.572083	747.559631	-17.390760
199.649536	744.736145	746.816650	749.788757	242.855042
200.027191	745.553467	751.051941	743.250183	-41.889507
200.404816	740.500916	744.364685	735.745544	-123.075951
200.782410	742.432800	759.448059	739.534973	-17.030756
201.159988	746.370850	763.311829	733.665039	-75.000450
201.537537	747.931152	776.314880	743.324402	-16.230251
201.915070	745.999268	771.559509	746.890930	3.488475
202.292557	737.008606	778.320984	752.017883	36.331188
202.670029	728.835388	777.726563	749.788818	42.857285
203.047485	720.885010	782.333313	743.918762	37.484764
203.424911	718.358704	770.667786	739.163391	39.772610
203.802292	723.188416	771.633789	733.813660	21.932423
204.179688	728.538147	771.930969	736.488586	18.322016
204.557037	728.835388	782.556335	742.432800	25.311192
204.934357	735.374023	782.704895	742.061279	14.128740
205.311661	737.603088	775.571777	742.061279	11.741756
205.688934	741.912659	776.091980	742.432800	1.521802
206.066177	736.191406	769.999084	751.572021	45.494446
206.443390	740.278015	775.051758	747.188171	19.871765
206.820587	744.216064	767.101318	740.055115	-18.181793
207.197769	743.101501	768.810242	737.603088	-21.387329
207.574921	737.751709	772.302429	731.436035	-18.279427
207.952042	727.052185	774.159973	727.349365	0.630851
208.329147	726.309082	773.045471	720.959290	-11.446739
208.706223	732.179016	770.073425	739.014893	18.039274
209.083267	734.036621	768.364441	751.646301	51.298569
209.460297	734.333801	767.992920	750.606140	48.344517
209.837280	723.485596	767.398499	733.888000	23.688721
210.214264	726.457703	769.479004	725.566101	-2.072465
210.591217	725.640381	767.101318	725.194580	-1.075231
210.968124	722.668274	765.912415	726.606262	9.106409
211.345016	723.188416	764.054871	728.835449	13.818262
211.721893	720.662109	770.370605	732.179016	23.168890
212.098724	717.095520	765.986755	737.528809	41.793358
212.475555	702.383606	762.048767	744.067383	69.862839
212.852356	708.773682	761.974426	739.609192	57.960674
213.229126	711.448547	765.838135	734.482422	42.349789
213.605865	725.417480	768.661621	726.011902	1.374571
213.982590	719.027527	761.602844	726.977844	18.673536
214.359283	722.445313	756.104492	733.145020	31.788378
214.735931	720.141907	760.785583	724.822998	11.517391
215.112579	718.284363	756.104492	726.086182	20.628748
215.489197	719.324646	761.825867	720.439148	2.622282
215.865799	714.049133	760.934143	730.024231	34.072933
216.242355	717.541321	764.203430	732.030457	31.051180
216.618896	722.816895	761.751465	732.253235	24.236406
216.995407	731.733215	762.866028	728.463867	-10.501294
217.371902	732.104675	764.277832	721.479431	-33.025185
217.748367	733.219238	768.736023	713.900574	-54.393055
218.124802	732.104675	763.683350	709.665283	-71.058693
218.501236	736.934387	768.067200	712.340149	-78.997803
218.877609	731.510315	760.265442	719.101746	-43.152546
219.253983	727.572266	757.516174	724.080078	-11.662431
219.630295	726.309082	750.829041	725.045959	-5.151406
220.006592	721.479431	749.342957	734.110840	45.333134
220.382889	720.142029	754.395508	734.482422	41.865509
220.759140	717.095520	761.751465	733.739441	37.271458
221.135391	717.764343	770.816406	727.943787	19.187649
221.511581	717.689941	775.497498	730.618652	22.365088
221.887772	714.420654	770.890808	738.791992	43.157909
222.263931	711.522888	761.454285	743.027161	63.095116
222.640060	704.984192	756.253113	745.999329	80.000000
223.016159	706.470276	760.785583	739.163513	60.191570
223.392212	709.145203	769.627625	737.157288	46.314423
223.768265	723.188416	774.457275	735.745605	24.492821
224.144302	723.485596	775.200378	734.705383	21.695513
224.520294	731.881836	767.918640	735.745605	10.721732
224.896286	728.389648	763.757751	729.504089	3.150977
225.272217	728.315247	766.135315	725.566101	-7.269012
225.648148	724.525818	769.701843	724.228577	-0.657962
226.024048	722.593933	772.599609	726.754883	8.320954
226.399902	718.953125	775.943359	731.287354	21.642706
226.775772	723.857178	779.064026	727.349304	6.325531
227.151581	729.206970	777.726563	725.789001	-7.044513
227.527374	734.036621	776.983582	733.144958	-2.076195
227.903137	730.395752	775.794739	734.110840	8.183196
228.278870	730.990234	779.807129	742.507080	23.591927
228.654572	736.042786	772.302490	740.723816	12.909731
229.030273	733.590759	765.912415	741.243958	23.678238
229.405930	723.782776	759.893982	737.157288	37.037010
229.781555	724.674500	762.048767	739.237793	38.966099
230.157181	724.302917	765.838135	740.352295	38.640408
230.532761	731.658875	771.262207	736.042786	11.069551
230.908325	720.885010	776.983582	732.327637	20.397358
231.283859	720.736389	776.091980	731.435974	19.328825
231.659332	713.603333	773.862793	738.717590	41.676872
232.034821	725.120300	770.816406	738.346191	28.943148
232.410263	722.668274	767.770020	736.042725	29.653954
232.785690	729.875671	768.438721	733.590759	9.633802
233.161087	724.228577	761.157043	728.463806	11.468740
233.536469	720.736328	767.472839	726.457703	12.241766
233.911804	716.501160	763.163269	729.875671	28.662468
234.287140	719.621826	766.878418	729.949951	21.855417
234.662430	724.377258	766.655457	731.584656	17.047550
235.037704	723.485596	770.890625	721.850891	-3.448378
235.412933	719.324646	778.023743	729.058289	16.582270
235.788162	718.210144	773.268372	732.253357	25.506111
236.163345	720.142029	767.027039	732.030457	25.356564
236.538513	718.953125	764.054932	727.572266	19.110411
236.913635	721.256531	774.903076	731.361633	18.836447
237.288742	723.931458	778.172363	736.488586	23.150661
237.663834	724.748779	776.017578	736.934387	23.768078
238.038879	730.024231	771.410889	729.652649	-0.897830
238.413910	727.646545	774.754456	732.996338	11.356463
238.788910	733.145020	777.800842	731.807556	-2.995048
239.163879	730.692932	778.692444	739.386414	18.111605
239.538834	735.002502	776.166199	736.860107	4.512726
239.913757	728.092346	775.200256	740.872375	27.129265
240.288651	729.578430	777.057861	736.488525	14.553871
240.663528	723.337097	777.726563	732.996338	17.759396
241.038361	729.578430	778.915466	737.528809	16.114422
241.413177	728.984070	784.190918	738.048889	16.419737
241.787979	732.327637	787.608887	741.987000	17.473127
242.162735	732.699219	789.243469	735.225403	4.467623
242.537476	731.881775	785.156921	733.367859	2.789451
242.912170	731.807556	787.237305	733.962219	3.887196
243.286865	727.869446	788.054688	736.042786	13.580306
243.661514	726.532043	789.689270	737.380188	17.176411
244.036148	730.024231	789.317810	732.253357	3.759473
244.410751	730.767273	788.128906	727.200684	-6.217726
244.785339	733.516418	786.419983	724.822998	-16.432579
245.159882	724.823059	798.977234	728.240906	4.609109
245.534378	722.222412	799.348694	734.333801	15.703323
245.908890	715.758057	795.782166	738.049011	27.855299
246.283356	716.724060	782.407654	744.810547	42.760277
246.657791	721.553711	782.779114	741.764099	33.009808
247.032196	730.024231	790.357971	736.339905	10.467897
247.406586	734.928223	803.509583	728.315247	-9.642527
247.780960	726.383362	808.710754	726.234802	-0.180450
248.155289	717.987122	818.444519	728.983948	10.946756
248.529602	717.689941	815.620911	736.340027	19.044113
248.903870	725.268860	823.794250	744.216064	19.230783
249.278122	727.869446	818.370178	747.856934	22.085443
249.652344	716.501160	814.655029	739.460693	23.391369
250.026550	713.008972	800.983337	739.609314	30.236469
250.400711	707.659180	798.679932	740.649597	36.244942
250.774857	721.033630	795.187744	745.330566	32.765461
251.148987	722.445374	795.633484	741.243958	25.685297
251.523071	726.383362	799.274414	732.253235	8.052940
251.897125	723.262695	804.475586	735.448303	15.004524
252.271164	727.200745	806.704651	730.618652	4.299044
252.645187	728.909668	806.778992	737.157227	10.591537
253.019165	729.578430	810.122620	732.327637	3.413290
253.393112	724.600098	812.277344	732.624817	9.152568
253.767044	723.336975	809.899719	736.265686	14.935653
254.140930	725.045959	806.704590	738.717590	16.742420
254.514801	726.309082	810.122559	738.940613	15.071002
254.888657	735.374023	814.060608	734.928223	-0.566552
255.262466	731.361633	814.952209	738.123230	8.088946
255.636276	734.408142	813.911926	746.296570	14.953285
256.010010	727.943787	813.837708	746.890930	22.058771
256.383759	733.144958	821.565186	738.569092	6.134494
256.757446	724.600159	823.645691	730.172852	5.626395
257.131134	723.114075	827.360840	724.154297	0.997846
257.504791	724.005676	835.162598	725.640320	1.470573
257.878418	723.857117	840.140808	731.361633	6.453628
258.252014	718.804504	848.388428	737.825989	14.678892
258.625580	711.448547	856.561768	742.209900	21.198174
258.999115	716.724060	875.731750	735.522644	11.822437
259.372650	717.318542	890.666748	736.265625	10.930071
259.746124	723.708496	902.480896	732.030334	4.654991
260.119598	733.516418	926.257751	726.457703	-3.662274
260.493042	737.900208	938.666321	719.324646	-9.252339
260.866425	730.172852	952.783752	720.513489	-4.339124
261.239838	711.448547	941.266907	730.841553	8.438406
261.613159	713.528992	925.886230	735.522644	10.356912
261.986511	715.386536	899.285828	730.544373	8.242466
262.359802	725.491699	881.824707	724.674377	-0.522808
262.733063	731.584534	879.446960	727.572266	-2.713514
263.106293	734.408142	883.087830	732.104675	-1.549281
263.479523	732.104736	890.740967	741.466797	5.901590
263.852692	721.702332	889.997986	736.934387	9.050772
264.225861	724.005676	890.815247	735.894226	7.127019
264.598969	728.612488	893.044434	731.436035	1.717153
264.972076	734.482422	900.325989	732.104736	-1.433692
265.345154	734.333801	894.604736	729.058350	-3.291584
265.718201	729.281189	896.016541	732.327637	1.827116
266.091217	732.699158	898.691406	733.962402	0.761026
266.464203	733.144958	918.976074	733.590820	0.239928
266.837158	735.671204	926.109131	728.909668	-3.550519
267.210114	726.011780	929.155579	724.154297	-0.914369
267.583038	720.959290	928.263977	731.658936	5.161314
267.955902	718.953125	932.350586	734.333801	7.207525
268.328766	715.015137	941.787048	743.621643	12.614660
268.701569	712.414551	941.341125	735.002502	9.866898
269.074371	713.751953	946.839600	732.104736	7.873769
269.447144	720.884949	951.594971	724.005798	1.352715
269.819885	722.445313	966.529785	725.417480	1.217680
270.192596	725.863281	979.384094	731.213135	2.110223
270.565277	721.627991	996.622375	731.658875	3.647669
270.937927	723.039795	1007.544861	735.076721	4.230830
271.310577	710.854065	1030.801636	731.287354	6.386449
271.683136	714.494934	1047.891235	733.665039	5.749945
272.055725	711.299988	1081.550415	737.231628	7.003811
272.428284	717.392761	1092.695801	738.717712	5.682062
272.800812	719.250305	1101.389160	741.392578	5.794301
273.173279	723.931396	1073.228516	748.154236	6.934738
273.545776	728.389587	1071.445190	741.392639	3.790363
273.918152	724.302917	1064.906616	733.813721	2.792337
274.290558	725.268860	1075.606079	724.080078	-0.339325
274.662964	724.302917	1056.213135	724.451477	0.044759
275.035278	729.801270	1054.578491	733.367859	1.098165
275.407593	725.714661	1056.064575	734.705322	2.721557
275.779907	725.863281	1070.850708	743.027161	4.975219
276.152161	723.411316	1079.395630	732.773438	2.629925
276.524384	726.977844	1103.098145	733.739319	1.797689
276.896606	722.891113	1111.717285	735.448425	3.229544
277.268799	719.919128	1122.639771	742.729980	5.664187
277.640930	721.776672	1119.370483	746.742371	6.279197
278.013031	724.971680	1133.488037	744.067444	4.674418
278.385162	726.309082	1127.246582	744.587585	4.558941
278.757233	725.789001	1133.710938	742.209900	4.025500
279.129272	726.829163	1127.618042	743.472961	4.152760
279.501282	723.559875	1138.020386	749.120056	6.167097
279.873230	729.058289	1142.850098	745.553467	3.986347
280.245178	722.668274	1156.670532	742.655762	4.605388
280.617126	728.166687	1174.205933	738.346130	2.282186
280.988983	714.420593	1199.617432	730.544250	3.323117
281.360870	717.615662	1234.762695	733.367859	3.045980
281.732697	718.953125	1270.947876	736.042786	3.095983
282.104492	728.538269	1296.731079	741.912659	2.353847
282.476288	728.389465	1313.449097	736.414307	1.371628
282.848053	724.748718	1322.662598	731.733215	1.168144
283.219757	717.318420	1323.480103	727.943787	1.752893
283.591461	719.324707	1321.250977	728.835388	1.580041
283.963135	723.262695	1319.318970	731.361633	1.358754
284.334747	723.114075	1329.349976	740.649597	2.892524
284.706360	723.188293	1350.154663	742.507080	3.081311
285.077942	724.971619	1370.588013	736.860107	1.841417
285.449524	731.881836	1402.315063	729.281189	-0.387905
285.821014	732.030457	1420.519409	727.646484	-0.636753
286.192535	727.646545	1451.355103	728.389587	0.102671
286.563995	726.383484	1465.472656	730.098572	0.502658
286.935425	722.965515	1486.871704	729.429871	0.846224
287.306824	719.770508	1484.791382	727.572266	1.019810
287.678223	726.680664	1477.806763	732.624817	0.791366
288.049561	733.739441	1457.076294	738.791931	0.698498
288.420898	730.024231	1444.667847	747.113831	2.391346
288.792145	724.748718	1441.770020	743.101501	2.559587
289.163452	721.107910	1448.457153	736.117004	2.063533
289.534668	726.011902	1472.605591	731.510254	0.736458
289.905914	726.680603	1497.348267	734.779602	1.050907
290.277039	725.045898	1535.094238	730.767273	0.706300
290.648193	731.584656	1572.914429	732.327637	0.088310
291.019318	732.699158	1598.028687	733.888000	0.137386
291.390381	730.544373	1617.570313	741.095398	1.189483
291.761475	727.126465	1609.471313	735.151184	0.909477
292.132507	714.123474	1606.127808	728.538269	1.616001
292.503510	712.265930	1582.573730	727.795166	1.784338
292.874481	714.346375	1570.239380	732.401917	2.109556
293.245422	715.386536	1574.326050	735.151123	2.301045
293.616364	723.485596	1596.022461	738.940491	1.771260
293.987213	713.380432	1635.254395	738.866272	2.764569
294.358093	716.724060	1671.291138	740.798157	2.521991
294.728943	715.163635	1716.913086	737.900391	2.269705
295.099731	720.216309	1765.358398	745.479187	2.417172
295.470490	720.736328	1793.147827	741.318176	1.919212
295.841248	720.885010	1824.354858	743.844543	2.080667
296.211975	731.287354	1840.106934	738.197510	0.623199
296.582642	735.076843	1885.803101	747.708191	1.097685
296.953308	736.860107	1931.127808	746.593689	0.815025
297.323883	734.853943	1979.498657	740.872375	0.483546
297.694519	733.070618	2011.597656	736.414246	0.261522
298.065063	733.070618	2009.739868	733.962219	0.069838
298.435608	727.497986	1988.563843	742.209900	1.166625
298.806122	726.977844	1931.573608	738.940613	0.993094
299.176575	730.692871	1875.029175	730.470032	-0.019473
299.547028	733.962219	1836.837524	722.742493	-1.017316
299.917450	734.928223	1825.692261	722.742493	-1.117174
300.287872	726.160461	1823.165894	728.686768	0.230291
300.658234	728.240967	1817.295898	732.401917	0.382070
301.028564	732.847717	1812.317749	730.841614	-0.185842
301.398865	737.825989	1815.586914	736.117126	-0.158557
301.769135	729.504089	1809.791382	733.219238	0.343904
302.139374	722.148132	1811.500366	736.637146	1.330058
302.509583	712.488770	1810.088501	734.259460	1.983482
302.879791	711.076965	1809.940063	737.528809	2.407201
303.249939	707.733398	1799.983398	736.934387	2.673471
303.620087	717.838562	1789.209595	736.117004	1.706079
303.990173	721.330811	1775.760742	737.900330	1.571420
304.360260	720.290527	1785.123047	740.278015	1.877055
304.730286	722.668274	1782.819702	741.838379	1.808242
305.100281	722.519592	1798.125977	735.522644	1.208904
305.470276	735.968445	1800.875000	729.058289	-0.648898
305.840179	731.361633	1820.119507	734.556702	0.293460
306.210144	726.829285	1836.540405	734.333801	0.676259
306.579987	720.290588	1852.663940	738.791992	1.633861
306.949890	712.934631	1870.868164	735.596985	1.957138
307.319702	725.491760	1886.323120	741.764099	1.401783
307.689484	729.652771	1911.660278	746.147949	1.395522
308.059265	737.825989	1935.288696	739.906555	0.173748
308.429016	727.349365	1967.907593	738.346191	0.886442
308.798737	723.411316	2000.526489	734.853943	0.895975
309.168396	723.634277	2049.046143	733.144958	0.717564
309.538055	726.011902	2088.575195	730.395691	0.321731
309.907684	725.863281	2122.308594	724.822998	-0.074495
310.277313	723.039795	2149.428955	736.117004	0.916805
310.646851	727.275085	2172.017334	737.825989	0.730297
311.016388	728.686829	2186.134766	744.959045	1.116487
311.385895	724.525879	2176.549561	740.723816	1.115542
311.755371	727.646484	2178.778809	739.237793	0.798777
312.124817	731.584534	2176.772461	736.117004	0.313625
312.494232	733.144958	2178.852783	732.996338	-0.010280
312.863617	733.813660	2163.398193	734.853943	0.072768
313.232971	732.104675	2149.800781	734.110840	0.141509
313.602295	741.095398	2141.627441	741.615479	0.037135
313.971619	738.271790	2153.441406	741.318298	0.215275
314.340820	737.677429	2161.763428	743.844543	0.433058
314.710083	722.742615	2190.369873	736.785828	0.956865
315.079285	716.649719	2216.450195	738.420410	1.451572
315.448486	716.278259	2255.013428	744.810547	1.854269
315.817596	725.268860	2255.756348	750.754700	1.665210
316.186707	730.544373	2227.892822	740.872498	0.689761
316.555786	729.652649	2188.066650	732.699158	0.208892
316.924866	726.309082	2146.605469	726.977844	0.047086
317.293884	714.717834	2128.772949	737.900330	1.639434
317.662872	712.488770	2122.754395	739.757874	1.933615
318.031830	715.609558	2140.735596	738.049011	1.574559
318.400757	726.309082	2149.280518	729.727051	0.240199
318.769684	727.720764	2160.277344	731.807556	0.285280
319.138550	721.999512	2182.791016	732.401917	0.712107
319.507416	717.764343	2212.511963	736.414307	1.247700
319.876190	715.163635	2229.675781	735.076843	1.314826
320.244995	722.891113	2222.022949	740.872375	1.199445
320.613770	725.640320	2197.800293	745.479187	1.347603
320.982483	736.042786	2178.630127	749.714417	0.947716
321.351166	735.745544	2161.391846	740.352356	0.323138
321.719818	732.847717	2159.682861	740.203796	0.515552
322.088440	725.491760	2157.082275	734.779602	0.648778
322.457062	721.479492	2179.893066	735.819824	0.983283
322.825623	721.256531	2214.740967	735.596924	0.960197
323.194183	714.569336	2254.790283	730.990173	1.066135
323.562653	712.340271	2298.183105	733.367859	1.325957
323.931183	710.705566	2351.978271	734.631042	1.457739
324.299591	715.981018	2422.343018	740.798157	1.454389
324.668060	720.662109	2479.556396	742.952942	1.267321
325.036407	725.268799	2521.908936	742.507141	0.959477
