Jaz Data File
++++++++++++++++++++++++++++++++++++
Date: Fri Jun 04 15:59:30 2021
User: jaz
Dark Spectrum Present: Yes
Reference Spectrum Present: Yes
Processed Spectrum Present: Yes
Spectrometers: JAZA3586
Integration Time (usec): 24700 (JAZA3586)
Spectra Averaged: 10 (JAZA3586)
Boxcar Smoothing: 1 (JAZA3586)
Correct for Electrical Dark: No (JAZA3586)
Strobe/Lamp Enabled: Yes (JAZA3586)
Correct for Detector Non-linearity: No (JAZA3586)
Correct for Stray Light: No (JAZA3586)
Number of Pixels in Processed Spectrum: 2048
>>>>>Begin Processed Spectral Data<<<<<
W	D	R	S	P
191.335022	0.000000	0.000000	0.000000	0.000000
191.713211	406.287323	398.113983	391.501068	180.908356
192.091385	811.162842	800.463196	797.193909	130.555099
192.469528	1212.546265	1209.945435	1206.453247	234.272034
192.847641	1212.248901	1219.604858	1221.165283	121.213074
193.225739	1210.762817	1231.790405	1223.468628	60.424480
193.603790	1224.286011	1236.694458	1219.679077	-37.127399
193.981842	1230.453003	1241.227051	1217.004272	-124.825233
194.359863	1241.449707	1247.022583	1219.307617	-397.318909
194.737854	1239.889526	1250.811890	1231.270386	-78.912781
195.115829	1238.180542	1254.675659	1239.815308	9.910604
195.493774	1239.889526	1251.777954	1247.245483	61.874935
195.871704	1244.570679	1251.332153	1245.759399	17.580791
196.249603	1251.035034	1250.440552	1250.143188	150.020538
196.627457	1250.143188	1249.326050	1239.220825	1336.659668
197.005310	1247.394043	1244.199097	1235.802856	362.797546
197.383133	1247.914185	1243.530396	1237.511841	237.291153
197.760910	1248.359985	1246.353882	1242.638794	285.189240
198.138687	1240.261108	1248.508667	1241.524292	15.315848
198.516449	1235.654419	1252.372314	1235.431274	-1.334764
198.894180	1235.431396	1252.595215	1232.607910	-16.450222
199.271866	1241.969971	1249.548828	1232.013428	-131.372620
199.649536	1251.480713	1243.307495	1223.765747	339.094910
200.027191	1250.514771	1232.905029	1223.765747	151.899017
200.404816	1249.400269	1233.796753	1226.069214	149.524353
200.782410	1236.323120	1246.725220	1235.802856	-5.001525
201.159988	1233.648071	1269.536255	1236.620239	8.281745
201.537537	1227.555298	1287.740356	1237.511841	16.543215
201.915070	1229.561401	1287.740356	1246.130981	28.480368
202.292557	1222.725586	1282.836548	1254.304199	52.533867
202.670029	1230.453003	1278.526978	1258.093628	57.496025
203.047485	1223.245728	1276.966675	1250.886230	51.452003
203.424911	1228.521240	1276.669434	1249.623169	43.827042
203.802292	1223.171387	1272.211060	1244.496338	43.485100
204.179688	1229.041382	1271.245239	1246.799683	42.077435
204.557037	1226.738037	1269.239136	1249.846069	54.370434
204.934357	1223.914429	1269.239014	1257.573608	74.262520
205.311661	1223.988770	1272.062500	1254.452759	63.369305
205.688934	1221.239502	1271.319458	1246.502441	50.445210
206.066177	1224.062988	1272.211182	1241.524170	36.265495
206.443390	1225.028931	1276.372070	1243.233154	35.456001
206.820587	1228.669800	1278.824097	1243.456055	29.481531
207.197769	1231.344604	1279.270020	1236.099976	9.922441
207.574921	1228.669800	1274.886108	1233.648071	10.771677
207.952042	1225.994751	1276.669434	1237.288940	22.287638
208.329147	1214.329468	1279.715820	1246.205322	48.750011
208.706223	1224.137329	1287.591919	1252.595337	44.847832
209.083267	1230.378784	1281.573364	1249.251587	36.864845
209.460297	1235.951416	1276.372192	1246.353882	25.735443
209.837280	1227.629517	1266.564087	1241.747070	36.259689
210.214264	1223.319946	1266.415649	1245.685059	51.896385
210.591217	1226.812134	1266.712891	1248.805786	55.120892
210.968124	1229.635742	1274.068726	1248.137207	41.639034
211.345016	1222.948364	1274.886108	1246.651123	45.636868
211.721893	1219.827759	1275.480591	1241.375610	38.718338
212.098724	1215.666870	1275.480469	1241.078491	42.484688
212.475555	1219.902100	1274.440308	1238.700806	34.468872
212.852356	1221.536743	1277.783813	1240.781250	34.214237
213.229126	1222.205566	1267.901611	1241.969971	43.251892
213.605865	1229.189941	1270.279297	1241.821411	30.741465
213.982590	1231.270386	1261.363037	1241.301270	33.333332
214.359283	1233.722290	1261.140137	1234.465454	2.710512
214.735931	1223.840088	1262.180298	1238.106201	37.209274
215.112579	1221.388184	1271.393921	1230.527344	18.276224
215.489197	1210.911499	1270.056519	1233.202271	37.688332
215.865799	1210.317017	1268.793335	1223.617188	22.744543
216.242355	1208.533813	1268.496094	1227.332397	31.350683
216.618896	1213.883545	1276.446411	1225.251953	18.171175
216.995407	1221.982544	1283.356567	1228.446899	10.532722
217.371902	1221.165161	1280.904663	1231.939087	18.034843
217.748367	1220.942261	1270.650879	1238.031860	34.379551
218.124802	1214.477905	1265.523926	1241.226929	52.401779
218.501236	1212.620361	1270.873779	1241.895630	50.255024
218.877609	1213.289063	1283.876831	1237.363281	34.105370
219.253983	1215.963989	1275.480469	1239.443726	39.450813
219.630295	1220.868042	1276.000610	1236.694458	28.706110
220.006592	1222.502686	1272.879883	1242.118530	38.937943
220.382889	1216.929932	1283.653809	1237.586182	30.957808
220.759140	1218.564575	1279.864380	1244.199097	41.818275
221.135391	1218.341797	1275.034668	1237.660522	34.076111
221.511581	1218.936157	1268.570313	1235.134155	32.634781
221.887772	1217.227051	1265.449585	1228.966919	24.345192
222.263931	1215.889771	1274.365967	1232.979370	29.224882
222.640060	1225.103271	1272.731323	1238.403442	27.925079
223.016159	1226.069214	1265.152344	1245.164917	48.859196
223.392212	1229.932983	1260.174194	1244.273315	47.419834
223.768265	1224.062988	1267.604492	1239.592285	35.665504
224.144302	1218.861694	1274.366089	1234.390991	27.978500
224.520294	1214.032104	1276.595093	1233.202271	30.641384
224.896286	1214.255005	1282.167847	1243.010254	42.341400
225.272217	1224.880371	1287.740356	1253.041138	44.799194
225.648148	1227.332397	1293.238770	1247.542725	30.665209
226.024048	1224.657349	1285.511353	1242.415894	29.182213
226.399902	1219.753540	1288.483521	1232.682129	18.810698
226.775772	1217.821533	1286.402954	1239.740967	31.961184
227.151581	1224.954590	1289.895264	1247.691284	35.011486
227.527374	1216.632813	1295.616577	1245.313599	36.312256
227.903137	1208.533813	1300.074829	1245.685059	40.584263
228.278870	1203.555542	1302.601074	1238.106079	34.883488
228.654572	1210.168457	1310.328491	1241.672729	31.453936
229.030273	1221.908203	1324.520386	1240.112549	17.740921
229.405930	1225.548950	1344.359131	1238.626465	11.007066
229.781555	1222.874146	1355.950439	1236.025757	9.882760
230.157181	1212.620361	1364.940918	1234.242554	14.195190
230.532761	1215.592529	1365.981323	1235.728516	13.389286
230.908325	1213.883545	1361.374390	1240.855469	18.287186
231.283859	1212.397461	1352.978271	1245.387817	23.467184
231.659332	1214.998169	1341.684326	1239.146484	19.061527
232.034821	1212.620483	1329.572998	1237.511841	21.283302
232.410263	1223.691406	1315.901245	1230.601563	7.493947
232.785690	1214.180786	1315.678223	1236.917480	22.401249
233.161087	1222.056885	1322.439819	1235.431274	13.323370
233.536469	1217.747192	1330.315918	1232.830688	13.399366
233.911804	1221.388184	1331.058960	1236.694458	13.956566
234.287140	1219.233276	1337.820435	1234.316772	12.719334
234.662430	1219.456177	1338.637817	1241.078369	18.142218
235.037704	1214.180786	1342.798828	1232.310669	14.095909
235.412933	1212.174561	1340.941162	1235.134155	17.830397
235.788162	1213.586426	1345.102173	1236.917480	17.740122
236.163345	1216.484131	1343.616089	1238.477783	17.299862
236.538513	1221.611084	1343.170288	1237.288940	12.897301
236.913635	1224.211792	1338.489258	1233.202271	7.867237
237.288742	1225.623535	1345.622192	1238.477661	10.711891
237.663834	1218.713257	1341.609863	1236.322876	14.328808
238.038879	1213.883423	1336.854492	1242.713013	23.444204
238.413910	1213.734863	1337.820435	1245.685181	25.748615
238.788910	1219.753540	1338.637695	1244.421875	20.749893
239.163879	1225.028931	1348.520020	1246.873901	17.689512
239.538834	1225.697632	1348.817261	1247.468384	17.682600
239.913757	1223.245728	1361.002808	1253.932739	22.276178
240.288651	1213.066284	1368.730347	1250.068970	23.770859
240.663528	1212.248901	1380.321655	1245.462280	19.761311
241.038361	1214.477905	1388.940796	1247.096802	18.696753
241.413177	1226.515137	1409.894165	1251.629272	13.695206
241.787979	1228.595459	1430.698853	1250.886353	11.029450
242.162735	1221.090942	1461.906250	1245.833740	10.274595
242.537476	1217.895874	1476.692261	1244.199097	10.163674
242.912170	1212.100342	1506.413452	1244.570679	11.032582
243.286865	1225.697754	1524.617554	1247.096924	7.158833
243.661514	1221.908203	1541.335571	1240.409668	5.792072
244.036148	1228.149658	1525.137695	1242.638672	4.878652
244.410751	1227.926758	1496.456665	1239.592285	4.344219
244.785339	1227.332397	1479.515625	1244.496216	6.806090
245.159882	1225.623413	1466.587036	1247.468384	9.065672
245.534378	1222.428345	1478.326782	1251.777954	11.469241
245.908890	1225.103271	1486.648804	1251.703613	10.170444
246.283356	1225.548950	1514.215210	1250.217651	8.545752
246.657791	1222.279663	1556.344727	1243.307495	6.294532
247.032196	1220.422119	1624.480469	1239.369385	4.689240
247.406586	1214.329346	1706.064819	1234.242432	4.049552
247.780960	1209.425293	1752.132446	1233.796631	4.490698
248.155289	1210.762817	1768.479126	1239.295044	5.115903
248.529602	1212.843262	1744.330688	1238.552002	4.837131
248.903870	1214.998047	1708.293945	1233.350830	3.720441
249.278122	1218.490234	1659.700073	1228.075317	2.172455
249.652344	1223.914429	1619.279297	1230.898926	1.766595
250.026550	1221.165161	1591.861450	1242.713013	5.812805
250.400711	1222.948608	1571.874023	1249.846069	7.708656
250.774857	1227.406616	1553.744141	1250.440430	7.058279
251.148987	1240.260986	1548.171509	1251.703613	3.716218
251.523071	1235.134155	1541.409790	1242.489990	2.401704
251.897125	1221.090942	1552.406738	1247.096802	7.849267
252.271164	1206.378906	1565.929688	1244.719116	10.663364
252.645187	1205.635986	1594.239258	1243.678833	9.789637
253.019165	1217.821655	1611.774780	1237.288818	4.941492
253.393112	1229.635742	1607.167847	1243.456055	3.660699
253.767044	1231.196167	1583.390991	1242.935913	3.333310
254.140930	1226.292114	1556.047485	1242.935913	5.047317
254.514801	1218.044556	1541.707153	1239.146606	6.519768
254.888657	1219.530640	1530.338867	1244.050415	7.889037
255.262466	1220.422241	1529.075684	1247.988403	8.931105
255.636276	1214.923828	1523.205933	1251.777832	11.954637
256.010010	1210.242798	1537.694824	1257.870728	14.545010
256.383759	1213.809204	1547.279907	1259.728271	13.770045
256.757446	1220.422241	1572.245483	1252.520874	9.123511
257.131134	1219.381958	1586.363159	1251.777832	8.827666
257.504791	1218.564575	1610.288574	1247.096924	7.283789
257.878418	1220.570801	1634.882813	1249.846191	7.066025
258.252014	1226.440796	1676.789429	1243.084473	3.695732
258.625580	1221.536743	1724.120483	1246.130859	4.893536
258.999115	1230.824585	1784.528442	1243.084473	2.214160
259.372650	1231.121704	1860.614380	1243.753296	2.006630
259.746124	1232.682129	1951.263672	1236.843140	0.579059
260.119598	1223.319946	2049.120361	1237.808960	1.754542
260.493042	1216.335571	2127.435547	1241.747192	2.789114
260.866425	1216.409912	2168.004883	1249.548950	3.482473
261.239838	1213.512085	2137.466553	1251.406372	4.101315
261.613159	1219.307617	2063.609375	1249.846069	3.617007
261.986511	1216.558472	1966.793091	1249.326050	4.367644
262.359802	1221.090942	1897.988770	1257.945068	5.444562
262.733063	1222.502808	1845.530884	1252.223755	4.770402
263.106293	1227.926758	1832.973755	1252.446655	4.052561
263.479523	1221.759644	1825.840698	1242.935913	3.505534
263.852692	1218.713135	1821.679688	1253.561279	5.779449
264.225861	1217.598633	1801.618042	1254.898804	6.386803
264.598969	1218.861938	1785.048462	1254.155762	6.233603
264.972076	1213.437866	1787.277710	1251.852295	6.694277
265.345154	1208.013672	1806.224976	1245.462158	6.260077
265.718201	1205.264526	1829.556030	1248.434326	6.915007
266.091217	1214.180786	1856.156250	1245.759399	4.918975
266.464203	1212.768921	1882.310913	1252.669556	5.959393
266.837158	1215.592407	1915.003906	1252.075073	5.216195
267.210114	1210.465576	1957.059204	1253.635498	5.782251
267.583038	1215.815308	1983.734009	1249.251587	4.354143
267.955902	1220.199341	2005.504883	1245.462158	3.216941
268.328766	1221.462402	2002.458374	1243.753174	2.854147
268.701569	1225.549194	2003.052734	1237.586060	1.548143
269.074371	1221.090942	2008.179688	1238.031860	2.152352
269.447144	1218.713257	2017.913452	1237.511841	2.352175
269.819885	1208.385132	2035.151733	1249.623169	4.987869
270.192596	1207.047729	2064.129639	1252.595215	5.314251
270.565277	1209.276855	2104.327393	1253.115356	4.897880
270.937927	1208.682373	2156.041992	1244.867798	3.819608
271.310577	1211.060181	2222.468750	1239.220825	2.784300
271.683136	1207.865112	2295.582764	1233.573730	2.363538
272.055725	1215.889771	2373.823486	1237.734741	1.886548
272.428284	1212.100342	2408.894287	1246.130859	2.843473
272.800812	1210.317017	2415.209717	1256.236206	3.811060
273.173279	1208.533813	2382.219482	1259.505493	4.342873
273.545776	1217.672974	2359.111328	1259.282593	3.645367
273.918152	1230.230103	2326.121094	1259.356812	2.657811
274.290558	1230.973145	2298.777588	1258.019409	2.532886
274.662964	1227.035034	2270.171143	1253.041138	2.493069
275.035278	1219.233276	2258.356934	1244.793457	2.459782
275.407593	1220.942261	2259.694336	1243.976074	2.217451
275.779907	1223.022827	2277.229492	1250.663452	2.621936
276.152161	1229.189819	2301.898193	1261.957397	3.054659
276.524384	1228.298218	2347.891846	1262.626099	3.066102
276.896606	1225.251953	2370.331055	1259.208252	2.965411
277.268799	1221.610962	2393.959473	1246.874023	2.154911
277.640930	1219.753540	2413.724121	1238.477661	1.568223
278.013031	1214.626587	2432.002441	1233.945313	1.586915
278.385162	1212.100342	2443.073486	1236.471558	1.979833
278.757233	1211.357300	2427.544189	1240.855469	2.425463
279.129272	1218.118774	2420.188477	1239.815308	1.804931
279.501282	1214.552368	2425.984131	1239.592285	2.066969
279.873230	1219.159058	2453.475830	1240.855469	1.757767
280.245178	1225.251831	2494.862549	1238.626343	1.053434
280.617126	1227.406616	2543.382080	1244.867676	1.326853
280.988983	1228.446899	2605.276123	1245.610718	1.246619
281.360870	1228.744019	2671.925781	1249.400146	1.431291
281.732697	1226.366333	2734.340088	1249.177368	1.512694
282.104492	1223.319946	2791.033203	1253.932739	1.952704
282.476288	1217.970093	2834.128906	1257.053467	2.418288
282.848053	1217.375854	2879.676025	1258.093750	2.449491
283.219757	1215.592651	2895.948486	1250.068970	2.051727
283.591461	1216.632690	2887.552002	1252.669434	2.156702
283.963135	1220.793823	2860.803467	1252.149414	1.911915
284.334747	1221.610962	2850.623779	1251.629272	1.842730
284.706360	1219.381958	2881.831055	1250.291870	1.859300
285.077942	1216.632813	2936.815186	1251.332153	2.017190
285.449524	1219.307739	3003.539063	1251.183594	1.786531
285.821014	1216.929932	3052.653076	1248.211426	1.704042
286.192535	1214.477905	3111.129639	1246.353882	1.680645
286.563995	1212.768921	3152.813232	1245.610840	1.692844
286.935425	1215.592407	3199.697998	1251.480713	1.808790
287.306824	1217.895996	3203.413086	1253.412598	1.788783
287.678223	1216.261230	3167.004639	1256.607544	2.068253
288.049561	1218.193115	3114.844482	1252.892456	1.829505
288.420898	1226.366333	3056.071045	1253.858521	1.502548
288.792145	1217.598633	3032.294189	1256.087524	2.120956
289.163452	1217.227173	3023.823486	1252.372314	1.945379
289.534668	1212.248901	3065.210205	1249.994629	2.037049
289.905914	1223.468628	3114.992920	1251.703735	1.492717
290.277039	1216.112671	3184.837646	1256.682007	2.060691
290.648193	1214.180786	3263.449951	1258.019409	2.139232
291.019318	1209.276733	3343.399658	1255.864624	2.182999
291.390381	1214.180786	3390.432861	1253.264038	1.795897
291.761475	1216.781372	3375.052490	1251.703613	1.618066
292.132507	1222.056885	3350.680908	1249.846069	1.305500
292.503510	1228.075317	3312.786865	1247.022583	0.908868
292.874481	1230.453125	3284.328857	1248.285767	0.868243
293.245422	1231.344727	3271.325439	1252.298096	1.027136
293.616364	1230.081543	3286.557861	1258.465210	1.380209
293.987213	1230.898926	3346.223389	1253.486938	1.067827
294.358093	1232.607910	3427.287354	1251.555054	0.863322
294.728943	1224.211548	3545.874268	1250.737793	1.142554
295.099731	1217.227173	3649.972656	1252.595337	1.453837
295.470490	1212.100220	3724.498047	1256.087402	1.750805
295.841248	1214.849609	3773.315186	1256.087524	1.611822
296.211975	1211.505859	3829.785156	1259.653931	1.838920
296.582642	1213.809204	3901.487305	1248.062744	1.274466
296.953308	1215.518188	3986.043701	1248.805786	1.201490
297.323883	1222.354126	4061.460938	1244.644775	0.785129
297.694519	1220.645020	4114.958984	1247.319702	0.921624
298.065063	1213.883667	4124.543945	1254.527222	1.396369
298.435608	1212.323120	4075.281250	1261.511597	1.718100
298.806122	1214.998047	3969.474365	1270.725220	2.023149
299.176575	1213.289185	3841.599365	1257.945190	1.699039
299.547028	1208.905273	3736.014893	1251.480835	1.684753
299.917450	1207.716431	3677.167236	1241.821411	1.381076
300.287872	1212.546143	3636.523682	1250.663452	1.572511
300.658234	1217.821655	3614.455811	1252.149536	1.432337
301.028564	1216.038330	3584.140381	1255.195923	1.653543
301.398865	1223.097046	3568.982422	1252.075195	1.235276
301.769135	1226.069214	3551.298828	1247.988403	0.942668
302.139374	1223.765869	3560.809326	1250.737671	1.154099
302.509583	1224.657471	3569.354248	1243.827515	0.817592
302.879791	1224.360229	3567.273438	1251.406372	1.154381
303.249939	1222.948486	3541.267578	1249.623047	1.150599
303.620087	1218.936157	3504.190674	1256.236206	1.632205
303.990173	1215.666870	3493.194092	1246.651001	1.360428
304.360260	1219.381958	3481.305420	1253.932739	1.527496
304.730286	1221.016602	3484.872070	1258.093628	1.637782
305.100281	1228.744141	3474.692627	1272.582642	1.951892
305.470276	1233.053711	3495.125732	1266.118286	1.461694
305.840179	1226.589355	3508.722900	1263.814941	1.631175
306.210144	1225.994995	3534.803467	1255.493164	1.277636
306.579987	1216.484253	3541.936279	1253.635620	1.597598
306.949890	1230.230347	3552.784424	1247.245483	0.732605
307.319702	1226.812256	3584.511719	1247.839844	0.891869
307.689484	1230.304443	3606.208252	1251.257690	0.881906
308.059265	1222.279785	3665.427490	1256.161743	1.386816
308.429016	1215.666748	3720.634521	1258.762329	1.720405
308.798737	1209.202393	3817.079346	1260.248413	1.957378
309.168396	1210.019775	3901.041748	1256.607544	1.731230
309.538055	1216.038208	3955.059570	1248.657227	1.190900
309.907684	1219.233398	3989.981689	1247.022583	1.002949
310.277313	1215.889771	4014.055908	1249.623169	1.205554
310.646851	1210.094116	4046.526123	1262.254639	1.838948
311.016388	1208.831055	4087.466797	1257.350708	1.685509
311.385895	1209.648315	4092.667969	1256.756226	1.633978
311.755371	1217.301392	4094.079834	1251.777954	1.198444
312.124817	1222.502563	4079.888428	1256.904907	1.203980
312.494232	1215.146606	4073.349365	1259.059692	1.536388
312.863617	1209.871216	4051.727295	1258.316528	1.704707
313.232971	1208.831055	4030.031006	1254.452881	1.617107
313.602295	1217.078613	4008.854736	1260.322754	1.548983
313.971619	1222.056763	4009.969482	1255.047241	1.183340
314.340820	1225.029175	3988.124268	1257.722168	1.183202
314.710083	1223.988770	4017.399414	1245.685059	0.776695
315.079285	1222.428467	4055.888428	1242.564453	0.710650
315.448486	1217.301636	4114.661621	1250.217651	1.136069
315.817596	1220.570801	4100.023926	1248.954468	0.985731
316.186707	1223.394287	4050.687256	1263.294800	1.411262
316.555786	1228.149780	3975.567139	1259.356812	1.135868
316.924866	1229.041382	3906.242920	1264.409302	1.321078
317.293884	1222.948608	3867.754150	1258.167969	1.331643
317.662872	1218.787598	3852.447510	1253.932739	1.334460
318.031830	1218.490234	3873.697998	1261.065796	1.603474
318.400757	1220.422241	3895.394531	1263.889282	1.624953
318.769684	1225.623413	3910.923584	1268.941895	1.613171
319.138550	1221.611084	3923.109375	1269.462036	1.771275
319.507416	1217.301392	3927.492920	1266.489868	1.814945
