Jaz Data File
++++++++++++++++++++++++++++++++++++
Date: Fri Jun 04 16:03:44 2021
User: jaz
Dark Spectrum Present: Yes
Reference Spectrum Present: Yes
Processed Spectrum Present: Yes
Spectrometers: JAZA3586
Integration Time (usec): 24600 (JAZA3586)
Spectra Averaged: 10 (JAZA3586)
Boxcar Smoothing: 1 (JAZA3586)
Correct for Electrical Dark: No (JAZA3586)
Strobe/Lamp Enabled: Yes (JAZA3586)
Correct for Detector Non-linearity: No (JAZA3586)
Correct for Stray Light: No (JAZA3586)
Number of Pixels in Processed Spectrum: 2048
>>>>>Begin Processed Spectral Data<<<<<
W	D	R	S	P
191.335022	0.000000	0.000000	0.000000	0.000000
191.713211	387.488678	386.225494	379.241089	652.920837
192.091385	782.481934	776.240479	763.683411	301.188141
192.469528	1172.942749	1174.948853	1147.011230	-1292.631104
192.847641	1184.311157	1189.289429	1154.367065	-601.495728
193.225739	1196.571167	1199.320190	1159.196777	-1359.551514
193.603790	1211.877319	1200.360474	1164.620728	410.325836
193.981842	1215.518188	1204.224121	1168.633301	415.128448
194.359863	1208.905273	1203.852661	1174.503052	680.879883
194.737854	1212.768921	1214.849487	1184.459595	-1360.654785
195.115829	1216.855591	1212.694702	1187.877563	696.438416
195.493774	1224.806030	1210.465576	1186.020020	270.465698
195.871704	1219.159058	1204.892944	1182.379272	257.812225
196.249603	1223.468628	1208.533691	1187.580444	240.296860
196.627457	1216.781372	1210.985718	1191.221191	441.023224
197.005310	1218.787598	1215.221069	1191.890015	754.167114
197.383133	1212.026001	1212.248901	1189.735229	-10000.328125
197.760910	1210.688599	1217.821655	1193.747437	-237.502136
198.138687	1208.013672	1216.707031	1190.998169	-195.729889
198.516449	1204.521484	1217.301392	1187.505981	-133.142624
198.894180	1206.527466	1213.883545	1183.716675	-310.094421
199.271866	1202.069458	1216.038330	1185.425537	-119.150070
199.649536	1199.171753	1215.221069	1183.939575	-94.908577
200.027191	1201.846558	1219.901978	1175.840576	-144.034210
200.404816	1200.360474	1213.437622	1170.342163	-229.547836
200.782410	1202.440918	1226.069214	1179.035645	-99.056122
201.159988	1203.183960	1232.756470	1189.958008	-44.723808
201.537537	1212.397461	1237.586060	1201.920776	-41.592964
201.915070	1209.796875	1236.694458	1205.933228	-14.364292
202.292557	1204.149902	1234.911255	1212.991821	28.743597
202.670029	1196.422485	1242.490112	1211.877319	33.548145
203.047485	1196.050903	1249.400269	1203.852661	14.623900
203.424911	1191.592773	1261.734497	1191.369751	-0.317960
203.802292	1197.462524	1257.053345	1187.060181	-17.456285
204.179688	1197.314087	1248.359985	1183.047974	-27.947618
204.557037	1199.691772	1237.957642	1179.184204	-53.592323
204.934357	1188.397827	1239.518066	1184.534058	-7.558199
205.311661	1187.060181	1244.867798	1186.985962	-0.128389
205.688934	1192.038574	1253.858398	1197.091187	8.173126
206.066177	1193.004517	1257.796387	1190.923950	-3.211154
206.443390	1195.902222	1252.743774	1190.106689	-10.195943
206.820587	1191.741333	1246.428101	1189.140747	-4.755421
207.197769	1198.057129	1237.363281	1194.639282	-8.695450
207.574921	1199.914551	1239.517944	1196.422485	-8.817592
207.952042	1195.307739	1233.127930	1193.450317	-4.911191
208.329147	1190.626831	1241.747070	1191.221191	1.162671
208.706223	1191.444092	1237.586060	1199.022949	16.425085
209.083267	1196.868286	1233.499390	1202.441040	15.213175
209.460297	1206.378906	1227.109497	1200.732056	-27.239218
209.837280	1203.926880	1224.806030	1197.165527	-32.383274
210.214264	1195.456421	1231.567627	1198.131470	7.407808
210.591217	1186.168579	1228.595581	1196.125122	23.467468
210.968124	1186.094360	1228.223999	1187.654663	3.703575
211.345016	1190.032349	1233.053589	1185.722900	-10.017025
211.721893	1193.004517	1244.496216	1188.100464	-9.523968
212.098724	1191.592773	1248.657227	1188.546387	-5.338501
212.475555	1193.227417	1249.771851	1183.790894	-16.688686
212.852356	1191.369873	1240.929810	1173.462891	-36.131973
213.229126	1188.917847	1246.799683	1173.611450	-26.444214
213.605865	1193.598999	1250.663330	1175.617554	-31.510832
213.982590	1197.388550	1256.830444	1184.534058	-21.625307
214.359283	1196.645386	1256.681885	1193.896118	-4.579327
214.735931	1192.261475	1249.028687	1194.416260	3.795827
215.112579	1187.580444	1251.703613	1182.750610	-7.532120
215.489197	1193.524536	1248.880249	1171.456665	-39.865570
215.865799	1187.431885	1243.381714	1166.627075	-37.184761
216.242355	1187.357544	1238.774902	1174.948975	-24.133036
216.618896	1182.379272	1232.310547	1176.732300	-11.309490
216.995407	1182.230469	1236.545898	1173.314331	-16.415478
217.371902	1183.270752	1230.824585	1176.880859	-13.437177
217.748367	1195.084961	1229.858521	1172.942749	-63.675426
218.124802	1206.304565	1228.001099	1173.983032	-148.970963
218.501236	1204.001221	1234.168213	1170.862427	-109.851173
218.877609	1188.843384	1244.570557	1175.097656	-24.666113
219.253983	1176.063354	1250.366211	1173.908691	-2.899839
219.630295	1180.744507	1244.719238	1177.178101	-5.574711
220.006592	1182.453613	1247.096802	1179.778687	-4.137987
220.382889	1194.119019	1249.846069	1182.676392	-20.533344
220.759140	1195.307861	1256.904785	1178.589844	-27.140995
221.135391	1203.852661	1257.499146	1175.989136	-51.939144
221.511581	1203.258301	1251.332153	1183.270874	-41.576504
221.887772	1196.422485	1251.555054	1190.403931	-10.916514
222.263931	1193.227417	1245.833740	1189.066528	-7.909484
222.640060	1189.066528	1242.713013	1182.082031	-13.019487
223.016159	1190.329590	1241.821411	1181.116089	-17.893135
223.392212	1188.843506	1243.381714	1186.614380	-4.087274
223.768265	1186.094238	1250.514771	1193.450317	11.418842
224.144302	1185.276978	1253.486938	1187.729004	3.594821
224.520294	1188.249023	1251.183594	1187.580322	-1.062534
224.896286	1190.106567	1257.573608	1175.840454	-21.145308
225.272217	1193.598877	1257.127808	1180.001465	-21.403496
225.648148	1188.769409	1260.397095	1181.487549	-10.166265
226.024048	1191.964233	1254.452759	1187.952026	-6.420710
226.399902	1191.146851	1262.106079	1187.060425	-5.758836
226.775772	1198.428589	1261.140015	1181.116089	-27.606611
227.151581	1191.592651	1265.152344	1184.905396	-9.090924
227.527374	1192.558594	1260.322754	1182.453491	-14.912164
227.903137	1188.471924	1273.474243	1181.487427	-8.216831
228.278870	1188.992065	1284.248169	1184.831177	-4.368107
228.654572	1186.911621	1300.000366	1186.985962	0.065737
229.030273	1183.939575	1312.111816	1194.193359	8.000004
229.405930	1187.729126	1317.461548	1183.345093	-3.379289
229.781555	1192.856079	1320.730957	1178.218262	-11.446984
230.157181	1197.982910	1324.891846	1175.320435	-17.857273
230.532761	1198.279907	1332.024902	1184.756958	-10.110994
230.908325	1194.936401	1332.396362	1189.214966	-4.162256
231.283859	1189.512207	1324.297363	1185.574097	-2.921769
231.659332	1186.020020	1311.442993	1181.041626	-3.969284
232.034821	1189.661011	1304.978638	1178.961304	-9.278466
232.410263	1187.580444	1303.567017	1176.806519	-9.288942
232.785690	1192.855957	1298.588745	1174.800293	-17.076693
233.161087	1187.283203	1297.028198	1176.212158	-10.087973
233.536469	1194.564819	1292.272827	1174.651733	-20.380199
233.911804	1192.930176	1291.009766	1173.834351	-19.469725
234.287140	1193.524536	1292.421509	1173.462891	-20.285398
234.662430	1192.558594	1291.604248	1173.685913	-19.054527
235.037704	1197.091064	1300.223267	1177.772461	-18.731884
235.412933	1202.440918	1307.430786	1183.716675	-17.834333
235.788162	1197.091187	1317.164307	1195.085083	-1.670735
236.163345	1193.301758	1320.507935	1197.982788	3.679877
236.538513	1195.233521	1319.244751	1197.685547	1.977262
236.913635	1197.611206	1312.260376	1189.363647	-7.193736
237.288742	1196.942505	1309.585571	1186.317139	-9.432775
237.663834	1191.444214	1304.012817	1182.007690	-8.382909
238.038879	1189.958130	1307.802124	1190.478149	0.441278
238.413910	1192.558716	1315.380981	1191.741333	-0.665501
238.788910	1196.868286	1316.644165	1192.187134	-3.908260
239.163879	1202.069458	1317.089966	1187.208862	-12.919953
239.538834	1201.846558	1314.638062	1189.066406	-11.330775
239.913757	1198.800171	1325.857666	1188.620605	-8.011779
240.288651	1200.954956	1341.238281	1187.060181	-9.904795
240.663528	1200.657715	1351.046387	1180.447388	-13.438729
241.038361	1196.793945	1366.798462	1179.258423	-10.314739
241.413177	1193.524536	1384.110962	1178.664063	-7.797236
241.787979	1199.394531	1414.649536	1181.413208	-8.353498
242.162735	1194.490601	1437.163208	1179.704224	-6.093138
242.537476	1190.849731	1452.989624	1182.379028	-3.231367
242.912170	1187.729004	1465.101074	1188.992188	0.455411
243.286865	1186.837280	1482.042114	1189.883789	1.031998
243.661514	1186.391602	1493.484741	1192.335815	1.935639
244.036148	1187.134644	1488.506470	1176.286377	-3.599629
244.410751	1196.422485	1474.908813	1176.063354	-7.310639
244.785339	1201.995117	1457.967896	1171.010864	-12.104511
245.159882	1201.252075	1450.091797	1181.487671	-7.942625
245.534378	1201.549194	1447.639771	1185.054077	-6.702864
245.908890	1200.806274	1471.639648	1186.688843	-5.212589
246.283356	1200.360474	1503.515625	1185.797119	-4.803928
246.657791	1195.976685	1551.292114	1189.660889	-1.777518
247.032196	1191.741333	1598.846069	1189.512329	-0.547526
247.406586	1194.787720	1662.300415	1190.998413	-0.810525
247.780960	1191.667114	1722.188477	1188.323364	-0.630276
248.155289	1189.363647	1747.599976	1192.410156	0.545738
248.529602	1183.047852	1741.878784	1193.747681	1.914681
248.903870	1195.159302	1695.067993	1192.410156	-0.549929
249.278122	1198.725830	1649.148804	1197.462769	-0.280417
249.652344	1201.995117	1596.096680	1193.524536	-2.149340
250.026550	1195.456543	1558.648071	1191.666992	-1.043403
250.400711	1199.989136	1534.871460	1182.676392	-5.169799
250.774857	1201.400757	1520.456665	1191.518433	-3.097364
251.148987	1197.759888	1518.004517	1187.060303	-3.341066
251.523071	1190.255249	1513.769165	1178.738403	-3.559923
251.897125	1186.837280	1524.766113	1173.908691	-3.825832
252.271164	1195.159302	1534.574097	1182.304810	-3.787251
252.645187	1201.177856	1558.127930	1196.496704	-1.311431
253.019165	1196.645264	1576.852173	1193.821777	-0.742618
253.393112	1194.787720	1585.099976	1190.552368	-1.085119
253.767044	1195.307983	1572.914429	1185.128296	-2.695846
254.140930	1201.475098	1541.781616	1183.790894	-5.196552
254.514801	1196.942505	1523.131470	1181.859009	-4.624159
254.888657	1196.125244	1503.738647	1182.230591	-4.516921
255.262466	1192.855835	1508.642578	1182.230591	-3.364690
255.636276	1192.038452	1503.589966	1186.911621	-1.645581
256.010010	1192.781616	1508.493774	1187.506104	-1.670988
256.383759	1195.159302	1519.861938	1190.775513	-1.350093
256.757446	1196.050903	1540.221069	1188.546387	-2.180467
257.131134	1190.775269	1566.895874	1195.233521	1.185325
257.504791	1188.546265	1589.409668	1192.558716	1.000952
257.878418	1192.187134	1620.319458	1194.639160	0.572726
258.252014	1190.849731	1657.099243	1190.478149	-0.079696
258.625580	1193.821777	1694.027710	1193.524536	-0.059424
258.999115	1196.496704	1755.401733	1188.769165	-1.382621
259.372650	1199.840332	1837.803345	1188.769287	-1.735374
259.746124	1190.478149	1936.105957	1185.722778	-0.637767
260.119598	1183.122192	2027.572632	1189.883789	0.800710
260.493042	1179.852905	2101.429443	1188.249146	0.911074
260.866425	1188.620605	2141.181396	1192.781616	0.436824
261.239838	1191.295410	2115.547119	1199.543091	0.892363
261.613159	1198.948608	2026.160767	1198.428589	-0.062864
261.986511	1194.639282	1921.914063	1194.341919	-0.040887
262.359802	1194.862061	1844.342163	1188.397827	-0.995293
262.733063	1191.146851	1812.466309	1198.428589	1.171980
263.106293	1197.685425	1800.875000	1205.933105	1.367345
263.479523	1194.564819	1787.277710	1203.406860	1.491792
263.852692	1197.314087	1784.156860	1201.029175	0.633064
264.225861	1195.010620	1772.862915	1191.072632	-0.681487
264.598969	1203.852661	1773.754517	1188.917847	-2.620594
264.972076	1204.447144	1764.764038	1179.184204	-4.508688
265.345154	1204.372681	1772.045532	1185.722778	-3.285326
265.718201	1201.474976	1786.683105	1188.174805	-2.272725
266.091217	1197.091187	1816.329956	1190.181030	-1.115911
266.464203	1191.146973	1851.846558	1185.648560	-0.832211
266.837158	1188.843628	1894.124878	1184.236694	-0.653205
267.210114	1190.255371	1932.836548	1187.728882	-0.340231
267.583038	1194.342041	1960.328735	1197.388306	0.397692
267.955902	1189.958130	1966.272949	1200.954956	1.416542
268.328766	1188.174805	1969.913696	1198.131470	1.273656
268.701569	1189.586548	1969.022095	1195.382202	0.743571
269.074371	1193.598877	1982.842407	1194.119019	0.065904
269.447144	1195.679321	1986.185913	1195.530762	-0.018793
269.819885	1195.307861	2008.030884	1182.825073	-1.535922
270.192596	1201.549316	2029.504395	1187.060303	-1.749976
270.565277	1202.218140	2077.132568	1184.979858	-1.970282
270.937927	1208.310791	2138.655273	1190.255249	-1.940737
271.310577	1201.846558	2206.642334	1187.877686	-1.390220
271.683136	1200.731934	2290.901611	1182.527832	-1.669841
272.055725	1192.038452	2350.640869	1181.116089	-0.942719
272.428284	1194.341919	2380.659180	1184.682617	-0.814226
272.800812	1191.592773	2357.179443	1192.038696	0.038257
273.173279	1188.843384	2322.554443	1197.834106	0.793035
273.545776	1186.242798	2302.789795	1190.403931	0.372679
273.918152	1189.735229	2282.059326	1186.837280	-0.265301
274.290558	1196.199585	2252.784180	1182.082031	-1.336150
274.662964	1199.691772	2237.403564	1187.357422	-1.188610
275.035278	1199.245972	2224.474854	1193.970459	-0.514569
275.407593	1191.146851	2239.260986	1199.097290	0.758547
275.779907	1190.106567	2248.400391	1197.759888	0.723175
276.152161	1190.998169	2273.885986	1188.694946	-0.212693
276.524384	1191.443970	2305.910889	1187.877563	-0.320010
276.896606	1188.769287	2340.981689	1188.174805	-0.051595
277.268799	1193.227417	2373.451904	1192.410034	-0.069257
277.640930	1202.515259	2388.015137	1192.410034	-0.852402
278.013031	1202.812378	2398.863281	1192.484497	-0.863498
278.385162	1199.691772	2404.064697	1200.806274	0.092538
278.757233	1193.970337	2396.411377	1199.543091	0.463453
279.129272	1203.035522	2384.374268	1200.137573	-0.245311
279.501282	1201.177856	2381.996582	1198.057129	-0.264285
279.873230	1202.069458	2407.185303	1202.886841	0.067826
280.245178	1192.187134	2443.965088	1201.920898	0.777595
280.617126	1189.437988	2506.305176	1198.279907	0.671436
280.988983	1188.323364	2566.193115	1189.363647	0.075499
281.360870	1190.478149	2625.858154	1186.094238	-0.305418
281.732697	1191.518433	2684.780273	1180.224487	-0.756327
282.104492	1189.809448	2746.376953	1188.174805	-0.105016
282.476288	1187.431763	2805.150391	1196.273804	0.546575
282.848053	1190.775391	2847.577393	1199.320190	0.515741
283.219757	1196.125244	2867.639404	1196.199585	0.004448
283.591461	1195.605103	2852.555908	1192.261353	-0.201801
283.963135	1194.267700	2831.676758	1190.255249	-0.245049
284.334747	1195.159302	2827.441406	1184.311157	-0.664600
284.706360	1198.205688	2861.174805	1184.608276	-0.817659
285.077942	1198.428589	2914.375732	1187.803345	-0.619206
285.449524	1195.530762	2967.427734	1187.060181	-0.478052
285.821014	1198.651489	3006.436768	1181.933350	-0.924786
286.192535	1197.982788	3066.919189	1183.939575	-0.751401
286.563995	1197.388428	3120.863037	1185.425659	-0.621935
286.935425	1192.187256	3173.915039	1190.032349	-0.108739
287.306824	1193.078735	3157.642578	1189.586548	-0.177759
287.678223	1195.605103	3115.438721	1198.131470	0.131593
288.049561	1202.738159	3054.510498	1197.982788	-0.256801
288.420898	1202.663818	3007.105469	1195.159302	-0.415891
288.792145	1201.326294	2986.672119	1192.112915	-0.516056
289.163452	1192.484253	2991.799072	1190.552490	-0.107361
289.534668	1187.431641	3032.294189	1198.205566	0.583996
289.905914	1182.304810	3074.349365	1196.273804	0.738302
290.277039	1188.769165	3150.732422	1206.601929	0.908924
290.648193	1187.060181	3225.183594	1198.874390	0.579661
291.019318	1189.214966	3303.127197	1200.954956	0.555368
291.390381	1181.859131	3336.786377	1190.106689	0.382730
291.761475	1183.865356	3328.687500	1182.379150	-0.069293
292.132507	1182.825073	3301.418701	1180.744507	-0.098205
292.503510	1179.852905	3267.462158	1180.298706	0.021355
292.874481	1183.493652	3247.177734	1194.044800	0.511277
293.245422	1187.134644	3249.332275	1198.948730	0.572888
293.616364	1188.992188	3284.106201	1198.577271	0.457497
293.987213	1188.620605	3327.870361	1194.341919	0.267445
294.358093	1190.106689	3409.305908	1191.592773	0.066965
294.728943	1195.902344	3496.983154	1194.193359	-0.074269
295.099731	1198.800049	3603.384521	1195.084961	-0.154500
295.470490	1194.416138	3661.860596	1191.221191	-0.129484
295.841248	1192.112793	3702.355713	1193.078735	0.038480
296.211975	1192.261475	3742.330811	1193.598877	0.052446
296.582642	1197.313965	3815.890625	1204.744263	0.283753
296.953308	1196.348145	3898.218018	1202.663940	0.233756
297.323883	1190.552612	3972.149170	1201.920776	0.408692
297.694519	1186.391602	4024.384033	1200.657593	0.502679
298.065063	1191.147095	4035.455078	1201.177856	0.352661
298.435608	1195.382202	3997.709229	1202.738159	0.262495
298.806122	1196.719604	3882.242920	1191.741333	-0.185374
299.176575	1197.165405	3752.212891	1193.821777	-0.130864
299.547028	1196.942505	3644.473877	1198.502930	0.063755
299.917450	1197.091187	3595.657227	1203.109741	0.250923
300.287872	1197.239746	3577.899170	1200.731934	0.146690
300.658234	1196.719604	3559.768799	1195.085083	-0.069170
301.028564	1198.577271	3535.249023	1197.314087	-0.054059
301.398865	1196.125244	3521.800049	1198.948608	0.121400
301.769135	1195.605103	3506.642578	1203.332397	0.334365
302.139374	1193.524536	3519.571289	1203.109497	0.412071
302.509583	1190.923950	3534.283203	1206.081787	0.646842
302.879791	1192.038452	3539.707764	1199.394653	0.313341
303.249939	1189.958008	3516.822266	1200.583374	0.456639
303.620087	1197.982788	3488.364014	1195.828003	-0.094080
303.990173	1195.605103	3468.005127	1196.793945	0.052317
304.360260	1195.456421	3454.110352	1188.769165	-0.296073
304.730286	1186.243042	3436.054932	1189.214966	0.132097
305.100281	1186.763062	3434.494385	1186.094360	-0.029750
305.470276	1183.939575	3457.008057	1189.586548	0.248430
305.840179	1185.648560	3471.051514	1186.020142	0.016259
306.210144	1186.614502	3482.791260	1189.512329	0.126202
306.579987	1194.193359	3489.404297	1194.490479	0.012945
306.949890	1200.211914	3510.134766	1196.273804	-0.170487
307.319702	1197.759766	3546.765869	1200.063354	0.098067
307.689484	1193.375977	3583.545898	1192.484497	-0.037298
308.059265	1188.843628	3633.922852	1195.679321	0.279569
308.429016	1189.215088	3703.395752	1186.911621	-0.091619
308.798737	1191.444092	3776.807373	1195.976563	0.175313
309.168396	1191.221191	3856.682861	1192.632935	0.052964
309.538055	1188.546265	3903.790771	1201.029175	0.459734
309.907684	1185.648560	3950.378174	1196.050903	0.376252
310.277313	1187.803345	3985.821045	1196.422485	0.308045
310.646851	1196.496704	4020.371826	1193.673218	-0.099986
311.016388	1207.493530	4042.662842	1200.137573	-0.259454
311.385895	1204.372681	4044.520264	1202.663696	-0.060172
311.755371	1200.732056	4044.891602	1202.886597	0.075753
312.124817	1194.044800	4049.498291	1204.669922	0.372099
312.494232	1196.125244	4037.386963	1206.973267	0.381803
312.863617	1191.890015	4016.136719	1207.419312	0.549856
313.232971	1184.236694	3975.195557	1194.713501	0.375384
313.602295	1190.032349	3947.629150	1189.289429	-0.026941
313.971619	1188.694946	3945.325928	1190.701050	0.072774
314.340820	1193.450317	3949.709717	1198.502930	0.183314
314.710083	1188.174927	3985.226563	1201.400635	0.472845
315.079285	1191.444214	4022.452148	1208.682373	0.608905
315.448486	1189.809570	4070.451904	1205.933228	0.559724
315.817596	1184.608276	4078.922607	1209.276855	0.852312
316.186707	1186.094360	4034.637939	1202.366577	0.571247
316.555786	1189.140747	3955.728516	1202.961060	0.499544
316.924866	1192.187134	3873.326904	1203.258301	0.412928
317.293884	1192.261353	3826.218750	1206.750366	0.550085
317.662872	1194.193359	3804.670898	1209.202393	0.574954
318.031830	1193.970459	3821.017334	1210.391235	0.625066
318.400757	1194.119019	3837.884033	1207.716431	0.514320
