Jaz Data File
++++++++++++++++++++++++++++++++++++
Date: Fri Jun 04 16:44:50 2021
User: jaz
Dark Spectrum Present: Yes
Reference Spectrum Present: Yes
Processed Spectrum Present: Yes
Spectrometers: JAZA3586
Integration Time (usec): 60600 (JAZA3586)
Spectra Averaged: 10 (JAZA3586)
Boxcar Smoothing: 1 (JAZA3586)
Correct for Electrical Dark: No (JAZA3586)
Strobe/Lamp Enabled: Yes (JAZA3586)
Correct for Detector Non-linearity: No (JAZA3586)
Correct for Stray Light: No (JAZA3586)
Number of Pixels in Processed Spectrum: 2048
>>>>>Begin Processed Spectral Data<<<<<
W	D	R	S	P
191.335022	0.000000	0.000000	0.000000	0.000000
191.713211	232.493210	234.870911	234.127884	68.750198
192.091385	473.456940	475.314545	470.782074	-143.995407
192.469528	711.374268	717.838623	708.847961	-39.080559
192.847641	721.033630	726.829285	715.015137	-103.844940
193.225739	724.451599	734.110840	722.593933	-19.232008
193.603790	736.042725	744.959045	736.637207	6.667351
193.981842	747.039551	755.361511	738.048889	-108.035378
194.359863	754.246887	760.488464	747.336731	-110.711700
194.737854	757.367676	759.893982	748.228333	-361.767059
195.115829	756.401672	756.401672	756.401672	0.000000
195.493774	757.367676	752.983826	746.668152	244.066833
195.871704	756.773254	751.646301	740.278015	321.735718
196.249603	758.556458	750.754700	741.095276	223.810867
196.627457	758.259277	756.847473	750.085938	578.928711
197.005310	753.949707	758.556458	750.457520	-75.805878
197.383133	750.085999	758.927979	749.045715	-11.765274
197.760910	746.222351	754.321228	751.126221	60.549995
198.138687	744.290344	752.092224	759.076599	189.521698
198.516449	742.952942	748.822754	754.172668	191.142853
198.894180	746.742371	747.782532	749.268616	242.870560
199.271866	757.590515	744.067444	740.055115	129.670258
199.649536	756.030212	737.231689	746.593750	50.197891
200.027191	751.794922	740.723877	745.404968	57.717709
200.404816	744.736145	748.005554	751.423340	204.538330
200.782410	741.838379	768.958801	757.962097	59.452312
201.159988	745.404846	780.104309	764.054871	53.747299
201.537537	744.290344	791.249695	777.355164	70.411575
201.915070	754.989929	783.968018	775.423157	70.512680
202.292557	752.240723	779.212646	772.822571	76.308418
202.670029	753.355286	767.472839	760.339783	49.473846
203.047485	744.290283	769.850525	756.847473	49.127823
203.424911	742.729980	773.788574	759.225159	53.109867
203.802292	742.729980	777.800964	758.556458	45.126984
204.179688	738.940613	783.447937	758.705078	44.407219
204.557037	741.318298	781.070251	758.036377	42.055992
204.934357	736.488525	786.642883	762.717468	52.296440
205.311661	740.723816	781.887512	763.831970	56.137218
205.688934	734.853821	779.064148	759.076599	54.789864
206.066177	730.098572	777.503723	756.178772	55.015541
206.443390	726.309082	770.890808	756.030212	66.666618
206.820587	731.807556	764.352112	764.872253	101.598244
207.197769	741.021057	764.797913	768.215820	114.374939
207.574921	734.853943	775.200256	770.445007	88.213921
207.952042	723.931396	775.571777	767.844421	85.036217
208.329147	715.832458	773.862793	764.352051	83.610741
208.706223	748.822815	793.255859	782.779114	76.421272
209.083267	752.389343	799.794495	782.333313	63.166065
209.460297	758.407898	802.766602	783.745117	57.118935
209.837280	725.789001	784.711121	753.652527	47.288734
210.214264	728.909729	778.023743	751.349121	45.688370
210.591217	730.990234	770.296326	751.423401	51.984734
210.968124	737.974609	769.701843	756.921814	59.719055
211.345016	739.906494	774.234314	749.120056	26.839928
211.721893	734.333801	774.308655	747.633972	33.271343
212.098724	731.658875	761.825867	752.537903	69.211502
212.475555	731.213074	764.352112	758.779297	83.183533
212.852356	736.191406	768.215820	753.355225	53.596043
213.229126	740.872375	778.915466	754.469788	35.742134
213.605865	742.358459	775.125977	758.259277	48.526161
213.982590	733.888000	766.581238	761.454346	84.318192
214.359283	740.055176	761.231384	758.333679	86.316223
214.735931	732.476257	761.825745	753.652527	72.152092
215.112579	736.117004	777.355042	747.931152	28.648666
215.489197	729.132629	779.361267	740.649475	22.928843
215.865799	731.436035	777.726563	740.500916	19.582582
216.242355	737.454529	769.553284	749.268616	36.805435
216.618896	737.900330	765.020813	757.144714	70.958855
216.995407	740.055115	762.420227	757.887695	79.733917
217.371902	736.488586	764.426453	754.023987	62.765713
217.748367	732.104736	764.129150	747.113831	46.867661
218.124802	728.909668	767.695618	746.519470	45.402531
218.501236	728.612488	756.698914	742.581360	49.735313
218.877609	733.070618	759.150879	750.903320	68.376244
219.253983	733.442139	757.739197	752.166504	77.064331
219.630295	727.943665	767.770020	756.773254	72.388222
220.006592	731.138733	776.612000	755.064270	52.614513
220.382889	728.835266	775.348938	757.293396	61.182289
220.759140	729.578369	773.045593	756.401672	61.709263
221.135391	728.389587	763.386230	751.051941	64.755791
221.511581	737.454529	770.147705	752.092102	44.772564
221.887772	744.959167	774.011475	746.816650	6.393581
222.263931	743.547363	778.915466	754.767090	31.722727
222.640060	736.414307	778.023865	749.863037	32.321251
223.016159	731.733215	769.627502	755.064270	61.568790
223.392212	731.807434	767.770020	742.878662	30.785406
223.768265	734.556641	767.324219	747.188171	38.548870
224.144302	737.305908	770.221985	751.051941	41.760849
224.520294	737.528809	770.073425	761.380066	73.287872
224.896286	743.027161	768.810303	764.797913	84.437935
225.272217	737.603088	772.599792	766.729797	83.227005
225.648148	733.962219	774.160156	766.209656	80.221619
226.024048	726.011902	778.915466	756.401672	57.443710
226.399902	726.309082	781.887512	750.160339	42.914593
226.775772	725.045959	781.738953	746.742371	38.270004
227.151581	731.956055	776.834961	758.184998	58.443810
227.527374	728.538147	766.655518	765.095154	95.906425
227.903137	737.900391	761.825867	767.398499	123.291626
228.278870	741.912781	762.568848	760.414063	89.568268
228.654572	748.005554	771.187988	759.299500	48.717686
229.030273	743.844543	774.903076	759.745300	51.196098
229.405930	731.064453	774.085754	759.745300	66.666618
229.781555	726.829163	767.844299	758.705078	77.717445
230.157181	719.696106	767.027039	762.717468	90.894814
230.532761	719.250305	764.352051	761.528564	93.739738
230.908325	715.980957	772.079590	759.448059	77.483353
231.283859	726.234802	769.107422	760.414063	79.722816
231.659332	731.436035	769.776184	762.717468	81.589233
232.034821	740.055115	758.110657	754.692688	81.069695
232.410263	727.423645	765.763855	745.850769	48.062138
232.785690	735.151123	767.695740	743.250061	24.885645
233.161087	734.482422	775.571777	753.206726	45.569721
233.536469	742.730042	771.856689	753.875305	38.264835
233.911804	741.021057	777.577942	759.225159	49.796642
234.287140	733.442200	772.896912	758.927979	64.595016
234.662430	735.076843	772.228210	767.472839	87.200012
235.037704	734.036560	764.500732	769.256042	115.609520
235.412933	738.791992	771.485168	765.763855	82.499977
235.788162	732.179016	772.822693	759.448059	67.092957
236.163345	733.293640	773.342773	754.841309	53.803082
236.538513	734.854004	771.410889	759.225281	66.666725
236.913635	732.773438	770.221985	762.123047	78.373161
237.288742	726.160461	775.200378	764.946533	79.090820
237.663834	724.228699	776.537781	762.791809	73.721634
238.038879	732.847717	775.348877	764.797913	75.174881
238.413910	735.671204	776.760559	757.516296	53.164848
238.788910	740.426575	775.125977	756.847473	47.323288
239.163879	737.603027	783.224915	751.497742	30.456245
239.538834	730.247131	780.550049	757.367676	53.914455
239.913757	728.315247	779.435547	755.212891	52.616367
240.288651	731.138733	774.903015	764.723572	76.740295
240.663528	736.562805	773.639954	763.906250	73.747429
241.038361	731.138733	774.085754	763.683350	75.778519
241.413177	721.850891	773.416992	749.491516	53.602318
241.787979	715.906738	774.234375	749.640137	57.834332
242.162735	718.210144	772.302429	752.760925	63.873768
242.537476	720.810730	775.200195	756.476074	65.573990
242.912170	718.210144	773.491272	758.184998	72.311935
243.286865	722.965515	769.999023	757.219055	72.827950
243.661514	728.761047	764.797852	757.516296	79.794113
244.036148	734.631042	769.627625	755.510071	59.660194
244.410751	734.928223	773.565674	759.448059	63.461319
244.785339	725.120300	773.342773	761.379944	75.192421
245.159882	729.949951	773.491394	764.500671	79.351341
245.534378	730.990173	783.522217	765.615234	65.912270
245.908890	736.191406	790.952454	773.788574	68.656776
246.283356	727.200684	784.265198	770.890686	76.562469
246.657791	727.423645	782.184753	765.986755	70.420616
247.032196	734.333801	780.327209	756.550293	48.303642
247.406586	737.305969	782.704834	761.974365	54.337032
247.780960	731.361633	779.138367	766.804016	74.183350
248.155289	726.754883	781.887512	760.562683	61.320854
248.529602	721.330811	786.271423	754.989929	51.830616
248.903870	726.309082	782.779114	751.051941	43.815910
249.278122	724.971619	783.968018	759.150879	57.934486
249.652344	734.482361	783.893738	756.996155	45.563988
250.026550	730.618652	788.351807	757.293274	46.203297
250.400711	739.757874	787.014404	761.305664	45.597488
250.774857	740.426575	783.819336	756.996094	38.184986
251.148987	740.055115	782.556213	757.516296	41.084072
251.523071	732.030334	775.274597	750.383118	42.439812
251.897125	732.327637	788.500488	762.197266	53.174492
252.271164	729.801331	791.918396	766.061035	58.373177
252.645187	728.240967	800.314636	764.575012	50.412373
253.019165	721.405090	795.187744	763.609070	57.200409
253.393112	727.572266	799.348633	761.231445	46.894516
253.767044	731.361633	795.930725	767.027039	55.236034
254.140930	729.578430	793.627380	763.237610	52.552273
254.514801	727.126465	785.899902	763.311829	61.567547
254.888657	720.736389	788.426208	758.853760	56.311821
255.262466	724.674500	781.738953	749.565857	43.619724
255.636276	726.160461	787.608887	752.092102	42.200661
256.010010	731.956055	795.113464	758.705078	42.352947
256.383759	737.157227	798.605652	761.825867	40.145275
256.757446	739.609192	800.166016	750.606140	18.159718
257.131134	737.305908	796.153625	747.708313	17.676819
257.504791	735.596924	797.193848	750.606140	24.366827
257.878418	731.658875	797.268250	752.537903	31.823238
258.252014	727.795166	799.794495	752.686523	34.571651
258.625580	721.107910	799.794495	759.596680	48.914017
258.999115	723.782776	799.868835	758.556458	45.703091
259.372650	730.618652	795.039124	755.732910	38.984901
259.746124	735.522644	808.933777	748.525574	17.712477
260.119598	729.801331	816.215393	752.760925	26.569281
260.493042	733.590759	827.658020	758.630798	26.619293
260.866425	734.705322	827.137878	756.996094	24.115715
261.239838	731.510315	824.314270	756.996094	27.461954
261.613159	721.256531	819.707520	752.686584	31.924568
261.986511	723.114075	814.877930	758.482239	38.542587
262.359802	738.123230	817.181335	763.163269	31.672956
262.733063	738.271912	815.472351	768.587341	39.268467
263.106293	736.042786	811.682861	768.736023	43.222111
263.479523	731.510254	813.243347	767.472839	44.000031
263.852692	740.575195	809.528137	768.141602	39.978580
264.225861	737.454529	814.655090	762.866028	32.916210
264.598969	740.500977	809.008057	762.791748	32.537910
264.972076	731.584656	815.175232	764.946472	39.910976
265.345154	732.550476	817.404297	769.553223	43.607639
265.718201	727.274963	818.815918	766.358215	42.694828
266.091217	737.528809	825.949036	758.482178	23.697483
266.464203	741.095276	830.110046	760.562683	21.869862
266.837158	733.590759	832.339050	765.169434	31.978958
267.210114	723.559875	829.292664	768.513123	42.515900
267.583038	722.519714	821.342285	767.175598	45.187939
267.955902	730.470032	824.834473	760.562683	31.889822
268.328766	731.138855	823.274109	762.123047	33.629028
268.701569	734.928223	830.630127	761.008484	27.251560
269.074371	737.008728	832.041931	764.946533	29.397942
269.447144	741.318176	837.837463	761.751465	21.170160
269.819885	739.832214	847.794006	764.872131	23.193314
270.192596	734.631042	849.577332	767.324219	28.442133
270.565277	739.832214	855.595764	768.587341	24.839535
270.937927	737.900208	853.961182	763.683350	22.215170
271.310577	737.974609	863.992004	758.779297	16.509378
271.683136	735.968445	863.620422	756.104492	15.774176
272.055725	724.525818	877.589355	756.698914	21.019438
272.428284	729.652771	889.626465	759.150940	18.439386
272.800812	739.312073	895.199219	760.711243	13.727347
273.173279	753.652527	893.341614	763.088928	6.755289
273.545776	751.572021	885.316895	761.974426	7.777797
273.918152	736.785828	887.991882	761.380066	16.265379
274.290558	731.956116	880.190002	759.076660	18.295778
274.662964	730.395752	876.549133	755.510071	17.183537
275.035278	731.510315	877.812317	753.206726	14.829880
275.407593	729.950012	879.521301	752.389343	15.002432
275.779907	737.231628	885.688477	758.333557	14.214184
276.152161	738.049011	883.830872	768.661621	20.998915
276.524384	742.507141	889.552185	771.113586	19.454206
276.896606	730.618652	889.329285	765.912415	22.237806
277.268799	725.194519	889.849365	754.544006	17.824854
277.640930	718.061462	901.514954	751.572021	18.266514
278.013031	720.216309	912.883301	754.469788	17.778593
278.385162	723.931396	920.759338	760.042480	18.346523
278.757233	727.795166	916.375488	765.095154	19.779364
279.129272	725.268860	912.511719	766.061035	21.785704
279.501282	725.640442	916.895508	766.209656	21.212099
279.873230	722.296692	920.907898	764.277771	21.137316
280.245178	722.371094	927.149353	766.358215	21.480368
280.617126	726.903503	938.443359	764.946533	17.983860
280.988983	737.603088	945.279236	764.797852	13.094793
281.360870	748.154053	958.430847	768.810242	9.823333
281.732697	747.039551	971.359436	771.187988	10.765179
282.104492	746.816650	984.288147	776.686340	12.578221
282.476288	742.432800	986.145691	770.296326	11.432931
282.848053	738.271912	991.792786	768.067200	11.752598
283.219757	736.637207	999.371582	762.122986	9.700207
283.591461	735.448425	1004.424133	766.729797	11.629813
283.963135	734.036621	1000.634705	768.661621	12.987716
284.334747	730.618652	1007.024719	770.073425	14.274206
284.706360	733.962341	1021.811035	766.878357	11.435180
285.077942	738.197510	1034.368164	765.169434	9.106886
285.449524	736.785828	1040.015259	758.556458	7.179590
285.821014	736.785828	1047.073853	763.237549	8.524893
286.192535	740.278015	1058.888062	765.020813	7.765856
286.563995	743.770264	1065.055176	767.175598	7.284915
286.935425	736.265686	1069.439087	759.893982	7.091891
287.306824	735.076843	1064.312134	760.711243	7.786042
287.678223	730.172852	1065.575317	763.386230	9.902545
288.049561	726.977844	1063.717773	769.701904	12.687554
288.420898	721.776672	1065.278198	769.107483	13.778923
288.792145	728.686829	1067.804321	767.547119	11.459241
289.163452	738.569031	1068.621704	762.717468	7.316541
289.534668	729.504150	1076.275024	758.853699	8.463672
289.905914	723.857117	1090.243774	762.643066	10.586070
290.277039	716.426941	1115.952515	765.243713	12.218685
290.648193	727.349365	1135.196899	770.890686	10.675881
291.019318	735.225403	1150.874756	771.113708	8.634274
291.390381	731.584534	1153.401001	774.308655	10.128604
291.761475	727.497864	1157.487671	767.695740	9.348565
292.132507	721.405090	1147.754028	769.256042	11.223425
292.503510	730.098572	1143.890503	770.221985	9.696519
292.874481	738.569031	1145.450806	781.516052	10.555160
293.245422	736.488586	1145.079224	783.745117	11.565740
293.616364	735.448303	1150.429077	777.652283	10.170105
293.987213	725.045898	1164.175049	768.067200	9.796959
294.358093	726.234802	1189.289429	760.339783	7.365218
294.728943	727.423645	1212.992065	760.637024	6.840103
295.099731	728.538147	1231.121826	761.751526	6.608527
295.470490	731.435974	1243.307495	768.141602	7.170867
295.841248	724.748779	1259.356812	772.971191	9.020144
296.211975	725.863281	1269.907837	767.249817	7.607196
296.582642	719.398926	1292.941650	763.906250	7.760071
296.953308	719.993347	1321.845337	754.246887	5.691356
297.323883	725.714661	1338.489380	763.089050	6.099205
297.694519	725.714661	1352.904053	766.283997	6.468435
298.065063	733.665039	1352.458130	774.605774	6.616224
298.435608	726.977844	1351.863647	769.479004	6.801428
298.806122	733.590759	1329.572876	763.757629	5.061707
299.176575	731.658875	1305.721802	758.705078	4.711366
299.547028	732.773376	1285.734253	763.311829	5.522715
299.917450	734.036621	1284.173950	759.225281	4.578613
300.287872	734.333801	1278.675537	762.123047	5.105110
300.658234	739.386414	1277.783813	766.506836	5.037250
301.028564	727.349304	1273.845825	768.513000	7.532289
301.398865	722.296814	1280.235840	767.547119	8.110260
301.769135	720.290588	1286.477295	763.088928	7.559051
302.139374	731.064453	1286.180054	770.519226	7.107488
302.509583	732.030457	1279.344238	776.166260	8.064076
302.879791	735.002502	1280.533081	770.593445	6.524096
303.249939	728.686829	1287.369019	767.695618	6.982286
303.620087	734.556702	1289.078003	766.878418	5.828760
303.990173	728.612488	1289.375122	773.491394	8.003191
304.360260	732.922058	1287.814819	771.113586	6.882686
304.730286	725.343079	1291.009766	765.540955	7.106283
305.100281	724.822998	1305.201538	754.915588	5.184994
305.470276	723.931335	1309.511108	759.448059	6.065224
305.840179	730.024231	1325.932007	757.813416	4.663336
306.210144	730.990234	1327.417969	765.689453	5.817841
306.579987	729.875671	1335.294067	769.999084	6.627386
306.949890	730.470032	1344.804810	770.296387	6.482842
307.319702	739.534973	1354.315796	773.119873	5.462906
307.689484	733.888000	1367.615845	771.410828	5.920969
308.059265	740.723816	1384.631226	769.553223	4.477260
308.429016	738.866211	1411.157227	766.655457	4.133514
308.798737	744.141785	1441.101196	761.602844	2.505319
309.168396	736.339905	1464.878296	766.283997	4.110160
309.538055	732.030457	1477.732544	765.392334	4.473888
309.907684	731.510315	1496.605469	767.918640	4.758667
310.277313	733.144958	1502.326660	764.649231	4.095817
310.646851	737.603088	1507.007813	765.020813	3.563498
311.016388	739.609314	1514.586548	773.119873	4.324070
311.385895	738.197510	1523.057129	784.488220	5.897961
311.755371	734.408142	1534.574097	789.169189	6.843711
312.124817	736.339905	1533.608032	783.002014	5.852750
312.494232	733.887939	1535.540039	771.782288	4.727032
312.863617	730.172852	1531.750610	772.674011	5.302188
313.232971	720.662109	1521.199585	769.107483	6.051606
313.602295	720.067688	1518.524780	771.930969	6.495438
313.971619	720.067688	1534.722656	772.748291	6.466615
314.340820	721.702332	1544.902222	770.890686	5.975263
314.710083	719.770508	1562.660522	774.382996	6.479195
315.079285	718.804504	1563.849487	766.209717	5.609786
315.448486	724.748779	1585.694336	767.844421	5.005618
315.817596	727.052063	1582.053589	770.742126	5.109940
316.186707	731.287415	1573.731812	770.147705	4.612802
316.555786	731.807556	1546.908203	766.209656	4.220595
316.924866	732.847717	1531.230469	756.327393	2.940905
317.293884	735.819824	1529.521484	758.259277	2.827190
317.662872	734.259460	1542.078735	756.921814	2.805374
318.031830	736.934387	1548.468750	767.844238	3.808816
318.400757	735.522644	1553.892700	769.256104	4.122030
318.769684	734.482422	1564.443726	777.206360	5.147702
319.138550	724.525818	1577.075195	773.788574	5.778288
319.507416	716.278259	1599.366089	779.361267	7.143458
319.876190	720.662109	1605.013062	783.670837	7.124856
320.244995	734.408142	1605.235962	777.875183	4.991462
320.613770	737.380188	1582.870972	773.937195	4.323762
320.982483	738.197510	1565.484009	777.652344	4.769186
321.351166	732.921936	1557.087891	778.023865	5.472433
321.719818	738.420410	1548.320190	778.618164	4.963300
322.088440	736.339905	1559.465454	765.986755	3.601741
322.457062	735.225403	1573.731567	762.271667	3.225530
322.825623	736.339905	1601.817993	758.779358	2.592723
323.194183	733.367859	1620.913940	755.807312	2.528258
323.562653	734.259521	1658.065308	756.773193	2.437057
323.931183	726.532043	1690.758423	759.968262	3.467673
324.299591	725.120300	1739.055176	766.655457	4.096432
324.668060	721.776611	1760.974609	776.834961	5.298158
325.036407	717.541321	1786.980469	774.903015	5.363717
