Jaz Data File
++++++++++++++++++++++++++++++++++++
Date: Fri Jun 04 16:01:53 2021
User: jaz
Dark Spectrum Present: Yes
Reference Spectrum Present: Yes
Processed Spectrum Present: Yes
Spectrometers: JAZA3586
Integration Time (usec): 24600 (JAZA3586)
Spectra Averaged: 10 (JAZA3586)
Boxcar Smoothing: 1 (JAZA3586)
Correct for Electrical Dark: No (JAZA3586)
Strobe/Lamp Enabled: Yes (JAZA3586)
Correct for Detector Non-linearity: No (JAZA3586)
Correct for Stray Light: No (JAZA3586)
Number of Pixels in Processed Spectrum: 2048
>>>>>Begin Processed Spectral Data<<<<<
W	D	R	S	P
191.335022	0.000000	0.000000	0.000000	0.000000
191.713211	387.488678	386.225494	390.535065	-241.167374
192.091385	782.481934	776.240479	782.630554	-2.381185
192.469528	1172.942749	1174.948853	1174.428833	74.078133
192.847641	1184.311157	1189.289429	1179.258423	-101.495758
193.225739	1196.571167	1199.320190	1187.431763	-332.460022
193.603790	1211.877319	1200.360474	1194.193237	153.549698
193.981842	1215.518188	1204.224121	1197.685669	157.892807
194.359863	1208.905273	1203.852661	1203.258301	111.763428
194.737854	1212.768921	1214.849487	1206.676147	-292.842041
195.115829	1216.855591	1212.694702	1205.933228	262.500732
195.493774	1224.806030	1210.465576	1205.413086	135.232422
195.871704	1219.159058	1204.892944	1206.379028	89.583122
196.249603	1223.468628	1208.533691	1209.722534	92.039856
196.627457	1216.781372	1210.985718	1211.431641	92.305908
197.005310	1218.787598	1215.221069	1218.267456	14.583975
197.383133	1212.026001	1212.248901	1213.957886	866.703186
197.760910	1210.688599	1217.821655	1207.493530	-44.792416
198.138687	1208.013672	1216.707031	1199.691772	-95.727081
198.516449	1204.521484	1217.301392	1204.892944	2.906594
198.894180	1206.527466	1213.883545	1202.069458	-60.603043
199.271866	1202.069458	1216.038330	1204.892944	20.212702
199.649536	1199.171753	1215.221069	1198.651489	-3.241656
200.027191	1201.846558	1219.901978	1198.577148	-18.107634
200.404816	1200.360474	1213.437622	1188.323486	-92.045967
200.782410	1202.440918	1226.069214	1190.552490	-50.314369
201.159988	1203.183960	1232.756470	1190.626709	-42.462582
201.537537	1212.397461	1237.586060	1196.199463	-64.306862
201.915070	1209.796875	1236.694458	1197.834106	-44.475254
202.292557	1204.149902	1234.911255	1204.818726	2.174232
202.670029	1196.422485	1242.490112	1207.196167	23.386665
203.047485	1196.050903	1249.400269	1206.824707	20.194811
203.424911	1191.592773	1261.734497	1209.648315	25.741514
203.802292	1197.462524	1257.053345	1208.236572	18.080046
204.179688	1197.314087	1248.359985	1213.660767	32.023495
204.557037	1199.691772	1237.957642	1216.707153	44.466209
204.934357	1188.397827	1239.518066	1225.920776	73.401360
205.311661	1187.060181	1244.867798	1226.589233	68.380356
205.688934	1192.038574	1253.858398	1217.227051	40.744984
206.066177	1193.004517	1257.796387	1206.601929	20.986294
206.443390	1195.902222	1252.743774	1203.332642	13.072162
206.820587	1191.741333	1246.428101	1208.310913	30.299067
207.197769	1198.057129	1237.363281	1210.762817	32.324936
207.574921	1199.914551	1239.517944	1205.933228	15.197376
207.952042	1195.307739	1233.127930	1202.515259	19.057333
208.329147	1190.626831	1241.747070	1205.115723	28.342770
208.706223	1191.444092	1237.586060	1213.214844	47.182106
209.083267	1196.868286	1233.499390	1209.722534	35.091076
209.460297	1206.378906	1227.109497	1201.177734	-25.089357
209.837280	1203.926880	1224.806030	1201.994995	-9.252698
210.214264	1195.456421	1231.567627	1200.063110	12.756952
210.591217	1186.168579	1228.595581	1209.722656	55.516712
210.968124	1186.094360	1228.223999	1204.818604	44.444347
211.345016	1190.032349	1233.053589	1210.317017	47.150356
211.721893	1193.004517	1244.496216	1200.211914	13.997203
212.098724	1191.592773	1248.657227	1195.530762	6.900948
212.475555	1193.227417	1249.771851	1194.119019	1.576816
212.852356	1191.369873	1240.929810	1194.044800	5.397357
213.229126	1188.917847	1246.799683	1196.496704	13.093672
213.605865	1193.598999	1250.663330	1192.038452	-2.734715
213.982590	1197.388550	1256.830444	1193.450195	-6.625554
214.359283	1196.645386	1256.681885	1189.289429	-12.252475
214.735931	1192.261475	1249.028687	1193.970459	3.010513
215.112579	1187.580444	1251.703613	1195.159302	11.819219
215.489197	1193.524536	1248.880249	1205.115845	20.939678
215.865799	1187.431885	1243.381714	1197.165527	17.397091
216.242355	1187.357544	1238.774902	1190.106567	5.346489
216.618896	1182.379272	1232.310547	1185.797119	6.845102
216.995407	1182.230469	1236.545898	1191.815674	17.647297
217.371902	1183.270752	1230.824585	1193.004517	20.468939
217.748367	1195.084961	1229.858521	1189.809448	-15.171046
218.124802	1206.304565	1228.001099	1185.648438	-95.204742
218.501236	1204.001221	1234.168213	1193.524536	-34.728966
218.877609	1188.843384	1244.570557	1200.657715	21.200306
219.253983	1176.063354	1250.366211	1203.406860	36.800072
219.630295	1180.744507	1244.719238	1205.710327	39.024502
220.006592	1182.453613	1247.096802	1196.125122	21.149187
220.382889	1194.119019	1249.846069	1195.753662	2.933304
220.759140	1195.307861	1256.904785	1196.125244	1.326986
221.135391	1203.852661	1257.499146	1199.691772	-7.756125
221.511581	1203.258301	1251.332153	1197.685547	-11.592069
221.887772	1196.422485	1251.555054	1196.496704	0.134619
222.263931	1193.227417	1245.833740	1197.016846	7.203371
222.640060	1189.066528	1242.713013	1205.041504	29.778234
223.016159	1190.329590	1241.821411	1209.053833	36.363529
223.392212	1188.843506	1243.381714	1216.038208	49.863579
223.768265	1186.094238	1250.514771	1212.917603	41.637913
224.144302	1185.276978	1253.486938	1212.249023	39.542679
224.520294	1188.249023	1251.183594	1205.858887	27.981224
224.896286	1190.106567	1257.573608	1203.852661	20.374533
225.272217	1193.598877	1257.127808	1202.515259	14.035151
225.648148	1188.769409	1260.397095	1208.385132	27.385672
226.024048	1191.964233	1254.452759	1209.128174	27.467348
226.399902	1191.146851	1262.106079	1198.948730	10.994877
226.775772	1198.428589	1261.140015	1196.793823	-2.606807
227.151581	1191.592651	1265.152344	1193.524536	2.626282
227.527374	1192.558594	1260.322754	1199.543091	10.307067
227.903137	1188.471924	1273.474243	1195.530762	8.304289
228.278870	1188.992065	1284.248169	1199.320190	10.842481
228.654572	1186.911621	1300.000366	1198.057129	9.855541
229.030273	1183.939575	1312.111816	1202.961060	14.840565
229.405930	1187.729126	1317.461548	1206.379028	14.375669
229.781555	1192.856079	1320.730957	1206.230469	10.458965
230.157181	1197.982910	1324.891846	1203.332642	4.215410
230.532761	1198.279907	1332.024902	1197.611206	-0.499982
230.908325	1194.936401	1332.396362	1189.809448	-3.729779
231.283859	1189.512207	1324.297363	1186.391602	-2.315244
231.659332	1186.020020	1311.442993	1191.518433	4.383896
232.034821	1189.661011	1304.978638	1199.691772	8.698377
232.410263	1187.580444	1303.567017	1201.177856	11.723264
232.785690	1192.855957	1298.588745	1197.388428	4.286722
233.161087	1187.283203	1297.028198	1199.171631	10.832774
233.536469	1194.564819	1292.272827	1202.663818	8.288981
233.911804	1192.930176	1291.009766	1199.245972	6.439460
234.287140	1193.524536	1292.421509	1197.091064	3.606307
234.662430	1192.558594	1291.604248	1192.335571	-0.225171
235.037704	1197.091064	1300.223267	1197.016846	-0.071965
235.412933	1202.440918	1307.430786	1191.369873	-10.544869
235.788162	1197.091187	1317.164307	1192.335815	-3.960396
236.163345	1193.301758	1320.507935	1193.153076	-0.116882
236.538513	1195.233521	1319.244751	1201.029175	4.673491
236.913635	1197.611206	1312.260376	1207.716431	8.814041
237.288742	1196.942505	1309.585571	1206.230347	8.245374
237.663834	1191.444214	1304.012817	1206.453247	13.333232
238.038879	1189.958130	1307.802124	1197.982666	6.809457
238.413910	1192.558716	1315.380981	1195.084839	2.056731
238.788910	1196.868286	1316.644165	1195.233521	-1.364854
239.163879	1202.069458	1317.089966	1201.029175	-0.904433
239.538834	1201.846558	1314.638062	1207.196411	4.743135
239.913757	1198.800171	1325.857666	1213.140625	11.286587
240.288651	1200.954956	1341.238281	1217.152954	11.546631
240.663528	1200.657715	1351.046387	1212.026001	7.559270
241.038361	1196.793945	1366.798462	1207.196289	6.118863
241.413177	1193.524536	1384.110962	1204.372681	5.691982
241.787979	1199.394531	1414.649536	1210.094116	4.970655
242.162735	1194.490601	1437.163208	1207.493530	5.358219
242.537476	1190.849731	1452.989624	1207.716431	6.434236
242.912170	1187.729004	1465.101074	1208.162231	7.366721
243.286865	1186.837280	1482.042114	1208.756714	7.425161
243.661514	1186.391602	1493.484741	1210.094116	7.718347
244.036148	1187.134644	1488.506470	1207.567871	6.780072
244.410751	1196.422485	1474.908813	1203.852661	2.668058
244.785339	1201.995117	1457.967896	1200.063232	-0.754723
245.159882	1201.252075	1450.091797	1197.462524	-1.522888
245.534378	1201.549194	1447.639771	1196.570923	-2.022943
245.908890	1200.806274	1471.639648	1190.478149	-3.813461
246.283356	1200.360474	1503.515625	1188.843628	-3.798994
246.657791	1195.976685	1551.292114	1186.837280	-2.572195
247.032196	1191.741333	1598.846069	1185.648438	-1.496641
247.406586	1194.787720	1662.300415	1183.791016	-2.352172
247.780960	1191.667114	1722.188477	1194.787720	0.588215
248.155289	1189.363647	1747.599976	1197.462646	1.450819
248.529602	1183.047852	1741.878784	1200.434814	3.111310
248.903870	1195.159302	1695.067993	1203.183960	1.605225
249.278122	1198.725830	1649.148804	1200.583496	0.412427
249.652344	1201.995117	1596.096680	1200.063354	-0.490169
250.026550	1195.456543	1558.648071	1200.657715	1.432074
250.400711	1199.989136	1534.871460	1207.344849	2.196507
250.774857	1201.400757	1520.456665	1212.100220	3.353476
251.148987	1197.759888	1518.004517	1200.434692	0.835238
251.523071	1190.255249	1513.769165	1198.354248	2.503447
251.897125	1186.837280	1524.766113	1196.942505	2.990341
252.271164	1195.159302	1534.574097	1202.663696	2.210980
252.645187	1201.177856	1558.127930	1200.434692	-0.208198
253.019165	1196.645264	1576.852173	1198.800049	0.566740
253.393112	1194.787720	1585.099976	1203.629761	2.265376
253.767044	1195.307983	1572.914429	1207.419189	3.207362
254.140930	1201.475098	1541.781616	1210.911499	2.772912
254.514801	1196.942505	1523.131470	1201.103516	1.275644
254.888657	1196.125244	1503.738647	1203.109741	2.270544
255.262466	1192.855835	1508.642578	1202.589600	3.082386
255.636276	1192.038452	1503.589966	1211.357300	6.200852
256.010010	1192.781616	1508.493774	1208.385132	4.942323
256.383759	1195.159302	1519.861938	1212.323120	5.286011
256.757446	1196.050903	1540.221069	1208.162231	3.518994
257.131134	1190.775269	1566.895874	1202.515259	3.121337
257.504791	1188.546265	1589.409668	1205.190063	4.151988
257.878418	1192.187134	1620.319458	1207.939331	3.679282
258.252014	1190.849731	1657.099243	1220.645020	6.390417
258.625580	1193.821777	1694.027710	1215.592407	4.352334
258.999115	1196.496704	1755.401733	1216.707031	3.616057
259.372650	1199.840332	1837.803345	1211.803101	1.875151
259.746124	1190.478149	1936.105957	1207.121948	2.232186
260.119598	1183.122192	2027.572632	1205.412964	2.639678
260.493042	1179.852905	2101.429443	1207.047729	2.950902
260.866425	1188.620605	2141.181396	1205.636108	1.786291
261.239838	1191.295410	2115.547119	1204.372803	1.414917
261.613159	1198.948608	2026.160767	1205.635864	0.808409
261.986511	1194.639282	1921.914063	1204.818726	1.399670
262.359802	1194.862061	1844.342163	1209.276733	2.219417
262.733063	1191.146851	1812.466309	1208.162231	2.738588
263.106293	1197.685425	1800.875000	1217.524414	3.289014
263.479523	1194.564819	1787.277710	1211.505859	2.858220
263.852692	1197.314087	1784.156860	1215.072388	3.026075
264.225861	1195.010620	1772.862915	1210.762695	2.725969
264.598969	1203.852661	1773.754517	1208.533813	0.821396
264.972076	1204.447144	1764.764038	1198.948730	-0.981304
265.345154	1204.372681	1772.045532	1199.245972	-0.903110
265.718201	1201.474976	1786.683105	1203.555542	0.355526
266.091217	1197.091187	1816.329956	1201.103516	0.647945
266.464203	1191.146973	1851.846558	1205.635986	2.192981
266.837158	1188.843628	1894.124878	1203.109741	2.022755
267.210114	1190.255371	1932.836548	1207.196167	2.281339
267.583038	1194.342041	1960.328735	1199.914551	0.727494
267.955902	1189.958130	1966.272949	1195.010620	0.650830
268.328766	1188.174805	1969.913696	1191.815674	0.465740
268.701569	1189.586548	1969.022095	1192.632935	0.390845
269.074371	1193.598877	1982.842407	1198.205688	0.583700
269.447144	1195.679321	1986.185913	1204.372803	1.099735
269.819885	1195.307861	2008.030884	1208.459595	1.618231
270.192596	1201.549316	2029.504395	1213.809326	1.480758
270.565277	1202.218140	2077.132568	1212.694702	1.197438
270.937927	1208.310791	2138.655273	1205.784546	-0.271539
271.310577	1201.846558	2206.642334	1198.725830	-0.310583
271.683136	1200.731934	2290.901611	1198.205688	-0.231730
272.055725	1192.038452	2350.640869	1198.279907	0.538706
272.428284	1194.341919	2380.659180	1205.413086	0.933238
272.800812	1191.592773	2357.179443	1201.103516	0.815962
273.173279	1188.843384	2322.554443	1201.697876	1.133842
273.545776	1186.242798	2302.789795	1200.434692	1.271052
273.918152	1189.735229	2282.059326	1204.595703	1.360445
274.290558	1196.199585	2252.784180	1208.756592	1.188453
274.662964	1199.691772	2237.403564	1210.539917	1.045391
275.035278	1199.245972	2224.474854	1213.363403	1.377003
275.407593	1191.146851	2239.260986	1217.524292	2.516657
275.779907	1190.106567	2248.400391	1213.363403	2.197578
276.152161	1190.998169	2273.885986	1212.471680	1.982986
276.524384	1191.443970	2305.910889	1208.162231	1.500113
276.896606	1188.769287	2340.981689	1203.704102	1.296186
277.268799	1193.227417	2373.451904	1203.852661	0.900273
277.640930	1202.515259	2388.015137	1204.818481	0.194283
278.013031	1202.812378	2398.863281	1211.208740	0.702007
278.385162	1199.691772	2404.064697	1209.945679	0.851390
278.757233	1193.970337	2396.411377	1208.013672	1.167902
279.129272	1203.035522	2384.374268	1199.691772	-0.283048
279.501282	1201.177856	2381.996582	1193.598999	-0.641831
279.873230	1202.069458	2407.185303	1195.828003	-0.517913
280.245178	1192.187134	2443.965088	1198.057129	0.468933
280.617126	1189.437988	2506.305176	1201.474976	0.914062
280.988983	1188.323364	2566.193115	1195.530884	0.523091
281.360870	1190.478149	2625.858154	1200.583374	0.704010
281.732697	1191.518433	2684.780273	1194.564819	0.204009
282.104492	1189.809448	2746.376953	1198.948608	0.587135
282.476288	1187.431763	2805.150391	1199.245972	0.730301
282.848053	1190.775391	2847.577393	1203.406860	0.762401
283.219757	1196.125244	2867.639404	1202.143677	0.360059
283.591461	1195.605103	2852.555908	1199.543091	0.237665
283.963135	1194.267700	2831.676758	1201.623657	0.449244
284.334747	1195.159302	2827.441406	1205.710205	0.646390
284.706360	1198.205688	2861.174805	1202.292358	0.245745
285.077942	1198.428589	2914.375732	1211.283081	0.749119
285.449524	1195.530762	2967.427734	1217.004272	1.211894
285.821014	1198.651489	3006.436768	1219.381958	1.146733
286.192535	1197.982788	3066.919189	1213.586182	0.834881
286.563995	1197.388428	3120.863037	1198.428589	0.054077
286.935425	1192.187256	3173.915039	1209.202515	0.858607
287.306824	1193.078735	3157.642578	1215.889771	1.161125
287.678223	1195.605103	3115.438721	1221.759644	1.362334
288.049561	1202.738159	3054.510498	1215.518188	0.690151
288.420898	1202.663818	3007.105469	1211.580200	0.494135
288.792145	1201.326294	2986.672119	1214.180786	0.720000
289.163452	1192.484253	2991.799072	1214.032227	1.197566
289.534668	1187.431641	3032.294189	1213.809326	1.429791
289.905914	1182.304810	3074.349365	1208.682495	1.394137
290.277039	1188.769165	3150.732422	1210.614258	1.113430
290.648193	1187.060181	3225.183594	1212.769043	1.261399
291.019318	1189.214966	3303.127197	1215.963989	1.265380
291.390381	1181.859131	3336.786377	1215.963989	1.582645
291.761475	1183.865356	3328.687500	1225.474731	1.939992
292.132507	1182.825073	3301.418701	1235.208496	2.472556
292.503510	1179.852905	3267.462158	1238.849243	2.826024
292.874481	1183.493652	3247.177734	1230.081543	2.257511
293.245422	1187.134644	3249.332275	1220.570679	1.621379
293.616364	1188.992188	3284.106201	1213.140503	1.152601
293.987213	1188.620605	3327.870361	1206.156006	0.819699
294.358093	1190.106689	3409.305908	1209.871216	0.890615
294.728943	1195.902344	3496.983154	1202.886719	0.303526
295.099731	1198.800049	3603.384521	1207.270630	0.352268
295.470490	1194.416138	3661.860596	1208.310913	0.563124
295.841248	1192.112793	3702.355713	1213.363403	0.846556
296.211975	1192.261475	3742.330811	1210.911499	0.731354
296.582642	1197.313965	3815.890625	1204.670044	0.280919
296.953308	1196.348145	3898.218018	1200.434814	0.151253
297.323883	1190.552612	3972.149170	1200.211914	0.347257
297.694519	1186.391602	4024.384033	1196.050903	0.340357
298.065063	1191.147095	4035.455078	1200.731934	0.336983
298.435608	1195.382202	3997.709229	1205.115845	0.347341
298.806122	1196.719604	3882.242920	1209.499634	0.475886
299.176575	1197.165405	3752.212891	1208.087891	0.427487
299.547028	1196.942505	3644.473877	1203.852661	0.282332
299.917450	1197.091187	3595.657227	1198.279907	0.049560
300.287872	1197.239746	3577.899170	1201.252075	0.168539
300.658234	1196.719604	3559.768799	1205.041504	0.352168
301.028564	1198.577271	3535.249023	1213.363403	0.632786
301.398865	1196.125244	3521.800049	1215.741089	0.843447
301.769135	1195.605103	3506.642578	1213.066162	0.755551
302.139374	1193.524536	3519.571289	1207.790771	0.613325
302.509583	1190.923950	3534.283203	1203.258179	0.526348
302.879791	1192.038452	3539.707764	1206.973267	0.636155
303.249939	1189.958008	3516.822266	1208.162231	0.782350
303.620087	1197.982788	3488.364014	1208.608032	0.463907
303.990173	1195.605103	3468.005127	1201.177734	0.245231
304.360260	1195.456421	3454.110352	1205.115723	0.427657
304.730286	1186.243042	3436.054932	1210.614258	1.083256
305.100281	1186.763062	3434.494385	1214.849487	1.249545
305.470276	1183.939575	3457.008057	1211.877441	1.229082
305.840179	1185.648560	3471.051514	1211.877441	1.147670
306.210144	1186.614502	3482.791260	1211.877441	1.100218
306.579987	1194.193359	3489.404297	1216.781372	0.984137
306.949890	1200.211914	3510.134766	1213.660645	0.582216
307.319702	1197.759766	3546.765869	1217.227173	0.828751
307.689484	1193.375977	3583.545898	1219.381958	1.088039
308.059265	1188.843628	3633.922852	1225.771973	1.510313
308.429016	1189.215088	3703.395752	1221.908203	1.300349
308.798737	1191.444092	3776.807373	1215.741089	0.939790
309.168396	1191.221191	3856.682861	1208.682373	0.655090
309.538055	1188.546265	3903.790771	1203.183960	0.539093
309.907684	1185.648560	3950.378174	1206.601929	0.757881
310.277313	1187.803345	3985.821045	1205.561646	0.634674
310.646851	1196.496704	4020.371826	1215.221069	0.663073
311.016388	1207.493530	4042.662842	1219.233276	0.414076
311.385895	1204.372681	4044.520264	1219.456177	0.531081
311.755371	1200.732056	4044.891602	1216.335571	0.548616
312.124817	1194.044800	4049.498291	1211.877441	0.624512
312.494232	1196.125244	4037.386963	1206.081909	0.350431
312.863617	1191.890015	4016.136719	1205.561646	0.484081
313.232971	1184.236694	3975.195557	1202.663696	0.660239
313.602295	1190.032349	3947.629150	1207.419312	0.630511
313.971619	1188.694946	3945.325928	1209.276855	0.746633
314.340820	1193.450317	3949.709717	1213.140503	0.714381
314.710083	1188.174927	3985.226563	1210.614258	0.802249
315.079285	1191.444214	4022.452148	1209.053833	0.622027
315.448486	1189.809570	4070.451904	1207.047729	0.598414
315.817596	1184.608276	4078.922607	1202.961060	0.634098
316.186707	1186.094360	4034.637939	1204.149902	0.633852
316.555786	1189.140747	3955.728516	1199.171631	0.362572
316.924866	1192.187134	3873.326904	1214.998169	0.850796
317.293884	1192.261353	3826.218750	1208.979614	0.634720
317.662872	1194.193359	3804.670898	1213.437866	0.737203
318.031830	1193.970459	3821.017334	1212.694824	0.712753
318.400757	1194.119019	3837.884033	1217.672974	0.890925
318.769684	1192.855957	3864.929932	1221.982422	1.090032
319.138550	1193.153076	3899.555420	1210.985718	0.658906
319.507416	1197.388306	3934.106201	1212.917725	0.567447
