Jaz Data File
++++++++++++++++++++++++++++++++++++
Date: Fri Jun 04 16:36:39 2021
User: jaz
Dark Spectrum Present: Yes
Reference Spectrum Present: Yes
Processed Spectrum Present: Yes
Spectrometers: JAZA3586
Integration Time (usec): 40000 (JAZA3586)
Spectra Averaged: 10 (JAZA3586)
Boxcar Smoothing: 1 (JAZA3586)
Correct for Electrical Dark: No (JAZA3586)
Strobe/Lamp Enabled: Yes (JAZA3586)
Correct for Detector Non-linearity: No (JAZA3586)
Correct for Stray Light: No (JAZA3586)
Number of Pixels in Processed Spectrum: 2048
>>>>>Begin Processed Spectral Data<<<<<
W	D	R	S	P
191.335022	0.000000	0.000000	0.000000	0.000000
191.713211	235.539627	237.917343	242.226852	281.245758
192.091385	476.280426	474.943024	482.224609	-444.457367
192.469528	722.668274	719.027527	723.931335	-34.692371
192.847641	729.504150	732.847717	737.008606	224.444611
193.225739	737.825989	749.268555	745.850769	70.130951
193.603790	744.141785	755.807312	758.705078	124.840424
193.981842	754.246887	753.429626	755.435791	-145.474228
194.359863	759.968262	752.612305	757.367676	35.353470
194.737854	758.482239	759.225281	756.698914	-240.003281
195.115829	763.088928	769.701965	752.092102	-166.290100
195.493774	763.534851	771.782410	752.537903	-133.335800
195.871704	769.627625	772.451172	749.194336	-723.674377
196.249603	763.683411	763.757629	753.355286	-13915.789063
196.627457	755.881592	764.500671	753.281006	-30.172432
197.005310	756.401672	763.386169	751.720642	-67.020294
197.383133	756.104492	766.283936	753.578186	-24.817724
197.760910	762.717468	769.256042	755.955872	-103.410873
198.138687	758.259277	768.958801	756.104492	-20.139074
198.516449	763.609070	776.314758	751.571960	-94.737953
198.894180	757.962097	772.822571	752.017822	-40.000576
199.271866	760.191101	764.797913	754.544128	-122.578766
199.649536	755.212891	757.367676	760.562683	248.274979
200.027191	756.401672	762.345886	759.373840	50.001026
200.404816	749.565857	763.014648	763.460449	103.314804
200.782410	748.302734	770.965027	759.745300	50.491653
201.159988	756.550293	771.633789	757.070374	3.448011
201.537537	759.448059	786.419983	762.048645	9.641826
201.915070	757.516296	790.209473	766.878418	28.636316
202.292557	752.389343	789.912292	769.924805	46.732632
202.670029	759.893982	793.181458	761.379944	4.464027
203.047485	755.361389	786.122803	762.940369	24.637943
203.424911	751.646301	790.432373	761.305664	24.904205
203.802292	742.507080	787.608887	758.556458	35.584778
204.179688	745.924988	791.101074	750.977722	11.184533
204.557037	746.890869	787.311707	747.411133	1.287117
204.934357	749.045715	786.122803	748.674255	-1.001858
205.311661	749.120056	783.076355	753.355286	12.472589
205.688934	746.222229	785.008301	754.915710	22.413925
206.066177	740.203613	777.949524	752.612305	32.874268
206.443390	738.494690	772.971191	745.330566	19.827641
206.820587	739.534973	766.655457	745.627747	22.465578
207.197769	743.175781	775.125977	741.466858	-5.348710
207.574921	747.485352	779.955627	738.866272	-26.544521
207.952042	749.714539	777.355042	736.340027	-48.387367
208.329147	745.702087	779.584167	735.448425	-30.262789
208.706223	752.983826	793.553040	751.349121	-4.029421
209.083267	749.342957	799.200012	750.606140	2.533611
209.460297	759.225159	798.754211	752.092102	-18.045099
209.837280	752.760803	787.460205	733.442139	-55.674343
210.214264	747.411133	791.175354	724.302917	-52.801613
210.591217	738.271912	781.293152	727.497864	-25.043554
210.968124	733.070618	783.596497	732.624817	-0.882322
211.345016	739.832214	783.150696	742.209900	5.488848
211.721893	738.346130	781.887512	743.324402	11.433426
212.098724	740.129395	780.104309	747.931152	19.516634
212.475555	743.547302	774.605896	752.389343	28.468903
212.852356	740.055115	774.828796	749.417236	26.923010
213.229126	738.866272	775.794678	754.915588	43.460625
213.605865	737.454529	767.844238	745.330566	25.916792
213.982590	742.061340	767.844238	744.959045	11.238865
214.359283	746.890930	760.042480	738.271790	-65.537071
214.735931	741.169678	767.770020	745.850647	17.597403
215.112579	745.479187	770.221985	748.971436	14.114202
215.489197	737.083008	771.782410	741.986877	14.132433
215.865799	736.637207	775.646057	733.293518	-8.571616
216.242355	728.092285	773.491272	728.240906	0.327365
216.618896	734.110840	778.915344	736.265625	4.809305
216.995407	735.968445	770.816406	738.643311	7.675817
217.371902	738.271790	773.342773	733.962219	-12.288136
217.748367	735.522644	765.392334	728.463867	-23.631905
218.124802	740.426575	775.125977	735.522644	-14.132608
218.501236	746.147949	772.005310	747.485352	5.172231
218.877609	748.079773	777.652344	747.708313	-1.256096
219.253983	741.095276	769.553284	748.599915	26.370920
219.630295	736.934387	769.107422	742.507080	17.321005
220.006592	736.934387	763.460449	741.763977	18.206961
220.382889	739.237793	764.797852	741.020996	6.976522
220.759140	737.231628	767.992920	744.438965	23.429890
221.135391	739.609314	776.389160	748.451355	24.040451
221.511581	742.729980	777.949524	745.181946	6.961945
221.887772	746.147949	781.218811	743.101563	-8.686376
222.263931	749.194275	777.280762	742.655701	-23.280142
222.640060	748.154053	779.286926	734.259460	-44.629971
223.016159	747.633972	780.921631	736.637207	-33.035561
223.392212	738.866211	789.243469	740.500977	3.245047
223.768265	736.414246	790.135071	748.154114	21.853477
224.144302	738.049011	788.574707	746.222229	16.176359
224.520294	744.884766	777.652283	734.705322	-31.065653
224.896286	750.606140	781.293030	738.197571	-40.436062
225.272217	750.531738	777.875183	734.333801	-59.238831
225.648148	752.017822	774.382996	742.878601	-40.863628
226.024048	741.987000	776.314880	739.237793	-8.008670
226.399902	738.420410	786.419983	742.655762	8.823728
226.775772	739.832214	798.828613	741.392578	2.644846
227.151581	749.194336	795.261963	739.534973	-20.967789
227.527374	748.154114	792.438477	735.076843	-29.530222
227.903137	747.411072	788.574707	727.052063	-49.458725
228.278870	742.061279	788.054688	729.727051	-26.817383
228.654572	749.417236	785.454102	736.191406	-36.700832
229.030273	740.352356	787.980408	745.033386	9.828305
229.405930	741.987000	786.048523	745.776367	8.600174
229.781555	729.652649	782.184814	745.404968	29.986046
230.157181	729.652771	788.574768	748.748535	32.408550
230.532761	730.470032	785.602600	745.553528	27.358595
230.908325	736.934387	786.345642	746.445129	19.248129
231.283859	737.305908	782.779114	733.887939	-7.516446
231.659332	739.683594	790.357971	736.637207	-6.011691
232.034821	743.547363	794.964783	730.692932	-25.000149
232.410263	747.931152	789.837891	734.036621	-33.155842
232.785690	743.695984	781.961853	730.915833	-33.398304
233.161087	739.460693	775.423157	736.488586	-8.264470
233.536469	736.562805	766.655518	737.380188	2.716215
233.911804	730.915833	767.547180	737.677429	18.458498
234.287140	736.562805	766.135437	732.030457	-15.326159
234.662430	739.832214	780.995911	730.544373	-22.563187
235.037704	753.206726	784.933899	741.392578	-37.236687
235.412933	751.349121	791.546875	742.432800	-22.181141
235.788162	750.308899	786.642883	745.627747	-12.883675
236.163345	744.438965	786.865784	737.454529	-16.462315
236.538513	742.209961	784.636780	739.386292	-6.655388
236.913635	737.008728	790.580994	743.472961	12.066381
237.288742	735.522644	793.330139	743.398743	13.624701
237.663834	736.488586	791.621155	746.742371	18.598415
238.038879	739.237793	782.779114	742.061279	6.484613
238.413910	737.974609	784.190918	749.268616	24.437275
238.788910	742.878601	789.540710	748.897156	12.898163
239.163879	738.271790	791.175354	758.928040	39.045101
239.538834	739.312073	782.110413	746.742371	17.361183
239.913757	733.665039	779.955627	743.398743	21.027391
240.288651	734.556641	781.664612	732.996338	-3.312184
240.663528	735.299744	789.615051	741.021057	10.533520
241.038361	735.002441	788.500488	740.426575	10.138937
241.413177	736.562805	784.933899	743.918884	15.207593
241.787979	730.915833	787.460266	743.547363	22.339123
242.162735	731.807556	795.187744	749.863098	28.487675
242.537476	737.677429	801.503479	751.200500	21.187386
242.912170	747.485352	795.336365	750.457520	6.211296
243.286865	745.999329	787.608887	750.531799	10.892859
243.661514	738.346191	784.785339	753.281006	32.159966
244.036148	737.677429	786.791504	749.417236	23.903143
244.410751	740.203796	798.308411	748.599915	14.450003
244.785339	742.135559	805.070007	738.791992	-5.312777
245.159882	738.271790	801.577698	742.284180	6.338098
245.534378	739.980774	800.686218	751.051941	18.237518
245.908890	746.668152	793.776062	758.630798	25.394135
246.283356	744.736267	794.073242	752.240723	15.210611
246.657791	742.581360	791.026794	743.695984	2.300782
247.032196	737.008728	799.943115	737.900330	1.416716
247.406586	736.637207	811.905823	740.278015	4.837087
247.780960	730.395813	814.506348	732.922058	3.003482
248.155289	731.733215	806.258789	736.785828	6.779703
248.529602	733.813660	798.308411	739.534973	8.870975
248.903870	740.278015	786.568604	750.383118	21.829714
249.278122	738.791992	788.946289	752.612244	27.555468
249.652344	736.340027	792.958679	754.246887	31.627140
250.026550	736.860046	800.686096	747.113831	16.065203
250.400711	735.225403	797.491028	746.742371	18.496510
250.774857	737.603210	794.147461	745.330627	13.666141
251.148987	740.278076	789.466492	743.621643	6.797468
251.523071	739.460693	794.296082	738.123352	-2.438829
251.897125	737.603027	798.531311	742.061340	7.317313
252.271164	731.733154	807.967773	738.271790	8.576989
252.645187	740.055115	813.837708	749.788757	13.192329
253.019165	733.070618	810.642761	744.810364	15.133971
253.393112	741.689758	814.506409	756.847473	20.816277
253.767044	735.894104	814.060608	748.079773	15.589375
254.140930	745.330627	812.500244	748.451355	4.646040
254.514801	735.745605	799.868835	746.370789	16.569944
254.888657	737.677429	787.088684	742.878601	10.526290
255.262466	742.284180	784.859680	744.141785	4.363084
255.636276	744.067566	790.358093	742.209900	-4.013059
256.010010	745.702148	804.921387	739.014893	-11.292371
256.383759	740.129395	811.608643	734.556702	-7.796239
256.757446	741.318176	819.038879	732.922058	-10.802937
257.131134	739.534973	811.608643	739.534973	0.000000
257.504791	738.791931	810.419739	745.479187	9.336117
257.878418	735.968445	807.001892	744.216003	11.610810
258.252014	736.860046	812.500244	746.742249	13.064749
258.625580	739.906433	824.908875	751.051941	13.111985
258.999115	740.946716	831.521729	746.965271	6.644829
259.372650	738.643311	845.564941	743.695984	4.725586
259.746124	738.271790	855.224304	732.327637	-5.082535
260.119598	736.637207	866.815613	730.172852	-4.965766
260.493042	740.426575	865.255188	733.665039	-5.416655
260.866425	737.528809	863.100403	739.906494	1.893490
261.239838	736.860107	855.298645	745.553528	7.340027
261.613159	735.076843	852.549500	742.284180	6.135331
261.986511	737.825989	845.490723	744.810486	6.487266
262.359802	738.569031	840.883972	743.621582	4.938234
262.733063	743.250061	833.007874	745.479187	2.483490
263.106293	739.832214	827.137878	741.987000	2.468093
263.479523	743.027283	830.555847	743.547363	0.594184
263.852692	730.915833	832.339050	742.729980	11.648366
264.225861	734.779602	835.162598	741.466797	6.661681
264.598969	737.305847	835.459778	746.965271	9.841097
264.972076	739.386414	831.967529	746.445129	7.624358
265.345154	737.900330	834.791016	746.147949	8.512294
265.718201	734.928223	831.224548	744.959167	10.416747
266.091217	743.250061	844.004578	748.079773	4.793544
266.464203	745.479187	848.462708	747.931213	2.380989
266.837158	748.897156	856.710388	743.101501	-5.375643
267.210114	748.302734	861.614258	739.832214	-7.475427
267.583038	750.234558	873.502747	741.912598	-6.751101
267.955902	750.160217	871.793762	743.918762	-5.131360
268.328766	748.599915	872.611145	746.593750	-1.617728
268.701569	746.965149	867.187012	748.748474	1.483362
269.074371	742.284180	875.806152	749.268616	5.230927
269.447144	740.203674	877.960938	745.776428	4.045343
269.819885	735.596924	887.323059	743.993164	5.533813
270.192596	739.757874	894.456116	748.599915	5.715670
270.565277	736.117004	908.425049	749.194336	7.589507
270.937927	743.101501	912.214539	757.144714	8.304039
271.310577	740.723816	925.143250	749.788757	4.915394
271.683136	741.838379	932.424866	748.302734	3.391823
272.055725	738.049011	938.963440	737.454590	-0.295858
272.428284	739.683594	933.093567	738.494812	-0.614643
272.800812	742.878662	935.174072	735.076843	-4.057205
273.173279	745.702148	932.722107	741.912659	-2.026249
273.545776	740.723816	938.369141	744.141785	1.729345
273.918152	734.036621	933.093567	746.147949	6.084353
274.290558	732.624817	937.774597	739.683594	3.440792
274.662964	738.197510	924.251526	736.339905	-0.998422
275.035278	743.175781	919.793396	738.866272	-2.440022
275.407593	738.940613	919.867737	736.562805	-1.314235
275.779907	742.432800	933.910950	733.739319	-4.540195
276.152161	741.689758	951.594971	733.442139	-3.929211
276.524384	744.290344	957.316223	741.987000	-1.081251
276.896606	744.513245	964.895081	742.952942	-0.708000
277.268799	755.064270	969.724792	745.182068	-4.603642
277.640930	753.652527	977.823792	744.736145	-3.977487
278.013031	750.754700	979.532776	748.079834	-1.169197
278.385162	744.141785	973.885742	748.302734	1.811125
278.757233	754.246887	974.851746	746.593750	-3.469161
279.129272	752.537903	983.990906	739.014893	-5.842659
279.501282	757.516296	996.548096	740.649597	-7.056257
279.873230	748.897156	998.702881	741.318176	-3.033949
280.245178	742.730042	997.588379	751.423401	3.411056
280.617126	735.596985	1010.219788	753.281067	6.439408
280.988983	735.819824	1028.126831	752.017883	5.541454
281.360870	743.918884	1047.891235	748.971375	1.662155
281.732697	743.993164	1054.429810	746.222168	0.718022
282.104492	744.661865	1068.918823	738.048889	-2.039425
282.476288	736.191406	1091.952759	738.791992	0.730992
282.848053	738.866211	1104.732788	733.813721	-1.380965
283.219757	736.785828	1101.983643	738.494690	0.467928
283.591461	740.129395	1097.451172	740.129395	0.000000
283.963135	741.764160	1095.667969	744.736145	0.839772
284.334747	738.049011	1104.955811	746.667969	2.349086
284.706360	740.575195	1105.550293	746.890930	1.730456
285.077942	738.494812	1118.181641	747.485352	2.367883
285.449524	743.250183	1134.453979	745.924988	0.683737
285.821014	737.603088	1153.846924	744.884766	1.749378
286.192535	740.055176	1171.382446	746.222229	1.429785
286.563995	737.751709	1191.072632	746.593750	1.950504
286.935425	747.708252	1201.772217	748.005554	0.065476
287.306824	750.160217	1196.273804	748.971497	-0.266461
287.678223	754.767029	1184.979858	753.355286	-0.328150
288.049561	752.983704	1178.441162	756.996094	0.943077
288.420898	748.376953	1175.097534	752.686523	1.009928
288.792145	749.937317	1180.521606	748.674255	-0.293337
289.163452	750.977600	1175.469116	744.364746	-1.557829
289.534668	748.897156	1186.243042	747.039551	-0.424745
289.905914	748.599915	1198.057129	749.342957	0.165320
290.277039	746.370850	1227.183716	744.438965	-0.401796
290.648193	753.578186	1252.966797	739.386414	-2.841830
291.019318	744.513367	1266.935669	740.278015	-0.810714
291.390381	742.581482	1277.635254	740.352356	-0.416617
291.761475	740.649597	1271.096558	736.042786	-0.868477
292.132507	743.175781	1268.421753	736.414246	-1.287308
292.503510	747.039551	1258.836670	746.370789	-0.130669
292.874481	744.959045	1262.923340	762.345886	3.356764
293.245422	745.999329	1268.347412	760.859863	2.844949
293.616364	745.925049	1282.019043	754.692810	1.635490
293.987213	745.850769	1299.331665	746.890930	0.187931
294.358093	746.667969	1330.167236	744.438965	-0.382006
294.728943	740.649475	1359.294067	744.513245	0.624554
295.099731	737.603027	1393.176147	740.500977	0.442048
295.470490	738.123230	1415.689819	741.021057	0.427682
295.841248	735.299744	1432.482056	743.324463	1.151022
296.211975	735.002502	1443.033203	749.788757	2.088363
296.582642	735.002502	1452.395142	745.850769	1.512180
296.953308	741.689758	1481.298950	743.918945	0.301401
297.323883	744.216064	1509.608398	741.912781	-0.300929
297.694519	744.587585	1534.796997	746.965332	0.300901
298.065063	743.918762	1546.908325	747.931152	0.499681
298.435608	741.912659	1534.871216	745.181946	0.412290
298.806122	736.637207	1508.939575	745.999268	1.212227
299.176575	735.448242	1464.803711	748.079834	1.731884
299.547028	732.699036	1429.435669	747.188171	2.079571
299.917450	733.962219	1411.751587	743.175781	1.359355
300.287872	737.974609	1410.859985	741.838379	0.574209
300.658234	741.095398	1424.160156	743.993164	0.424230
301.028564	745.330566	1431.441772	748.228455	0.422364
301.398865	751.943542	1438.797852	741.838379	-1.471224
301.769135	751.349121	1433.893921	740.352356	-1.611142
302.139374	753.503906	1430.104492	741.020996	-1.844945
302.509583	741.095276	1426.612183	740.352295	-0.108383
302.879791	748.451355	1427.206665	740.129395	-1.226062
303.249939	748.079773	1425.571899	736.265625	-1.743806
303.620087	750.754639	1424.160278	739.163513	-1.721269
303.990173	746.445129	1425.200562	736.637207	-1.444986
304.360260	740.055115	1431.664917	740.723816	0.096688
304.730286	740.426575	1433.596680	742.655701	0.321584
305.100281	738.420410	1442.587280	741.689758	0.464286
305.470276	737.677429	1446.302368	744.067444	0.901748
305.840179	737.677429	1453.286987	748.971436	1.578236
306.210144	729.578430	1460.122681	758.779358	3.997147
306.579987	730.544373	1462.054688	747.708313	2.346370
306.949890	725.194580	1475.131836	742.952942	2.367980
307.319702	736.340027	1483.973999	738.717712	0.318028
307.689484	739.906555	1496.085327	747.931213	1.061212
308.059265	742.804382	1511.985962	747.559753	0.618238
308.429016	736.860107	1536.505981	752.760925	1.988482
308.798737	738.123230	1572.691406	750.828918	1.522427
309.168396	741.541199	1601.520874	756.476013	1.736647
309.538055	742.061279	1619.799316	755.807312	1.566075
309.907684	738.420471	1642.313110	754.321289	1.759149
310.277313	726.977844	1656.505005	747.113953	2.166274
310.646851	732.624817	1675.675171	741.987000	0.992755
311.016388	738.940613	1684.219849	738.791992	-0.015722
311.385895	750.011719	1698.114380	740.426575	-1.010982
311.755371	752.612305	1700.343384	739.460693	-1.387694
312.124817	753.801086	1709.557007	740.500916	-1.391587
312.494232	752.017822	1702.721069	740.129395	-1.250488
312.863617	742.135559	1703.761353	739.312073	-0.293616
313.232971	742.581360	1689.792603	740.203796	-0.251007
313.602295	742.581360	1679.910278	742.952942	0.039643
313.971619	748.228455	1674.040161	743.547363	-0.505620
314.340820	739.163513	1688.603516	747.856873	0.915630
314.710083	743.918884	1723.823120	741.095398	-0.288139
315.079285	739.609375	1758.299683	741.392578	0.175049
315.448486	747.262512	1771.971313	735.002625	-1.196427
315.817596	750.457520	1760.380249	739.757874	-1.059452
316.186707	750.606140	1746.039673	740.352295	-1.030088
316.555786	749.268738	1725.234985	744.513245	-0.487260
316.924866	745.702148	1713.866577	746.073669	0.038374
317.293884	746.965332	1705.767578	748.154114	0.123986
317.662872	748.005554	1698.040039	747.411072	-0.062575
318.031830	745.776367	1687.489136	742.284180	-0.370834
318.400757	745.553528	1689.049438	741.987000	-0.378012
318.769684	743.844543	1701.532227	742.507080	-0.139655
319.138550	739.312073	1723.823120	747.708252	0.852827
319.507416	743.695984	1740.244141	745.627747	0.193845
319.876190	746.445129	1749.160278	744.884827	-0.155608
320.244995	753.652527	1759.042603	745.479248	-0.812946
320.613770	752.760925	1748.194336	756.253113	0.350821
320.982483	744.290344	1732.070679	759.448059	1.534523
321.351166	733.293640	1711.043091	758.779358	2.606569
321.719818	729.801331	1700.046265	748.599915	1.937509
322.088440	735.819885	1712.529297	745.404968	0.981365
322.457062	740.203674	1727.761230	747.856934	0.774968
322.825623	738.791992	1749.234741	752.389343	1.345683
323.194183	737.157288	1777.841309	753.206726	1.542201
323.562653	736.117004	1808.528320	752.389404	1.517365
323.931183	740.723816	1846.794067	747.708313	0.631470
324.299591	740.500916	1883.648438	748.005554	0.656489
324.668060	739.683533	1928.824341	751.572021	0.999754
325.036407	741.912659	1974.074707	753.578308	0.946763
