Jaz Data File
++++++++++++++++++++++++++++++++++++
Date: Fri Jun 04 16:47:11 2021
User: jaz
Dark Spectrum Present: Yes
Reference Spectrum Present: Yes
Processed Spectrum Present: Yes
Spectrometers: JAZA3586
Integration Time (usec): 61000 (JAZA3586)
Spectra Averaged: 10 (JAZA3586)
Boxcar Smoothing: 1 (JAZA3586)
Correct for Electrical Dark: No (JAZA3586)
Strobe/Lamp Enabled: Yes (JAZA3586)
Correct for Detector Non-linearity: No (JAZA3586)
Correct for Stray Light: No (JAZA3586)
Number of Pixels in Processed Spectrum: 2048
>>>>>Begin Processed Spectral Data<<<<<
W	D	R	S	P
191.335022	0.000000	0.000000	0.000000	0.000000
191.713211	226.474716	230.784256	231.452957	115.516762
192.091385	460.008179	466.546783	466.249542	95.454056
192.469528	701.789246	703.349609	700.897522	-57.148445
192.847641	722.519592	716.947021	710.408264	217.338257
193.225739	732.847656	724.674377	721.627991	137.272522
193.603790	736.042725	731.287354	737.083008	-21.875963
193.981842	737.305969	738.197510	741.987000	525.049622
194.359863	742.284180	741.838379	754.098328	-2650.095947
194.737854	745.107666	748.302734	755.732971	332.553284
195.115829	750.680420	744.959167	760.414063	-170.131332
195.493774	756.178772	749.120056	757.664856	-21.053177
195.871704	764.277832	749.342957	760.859863	22.885820
196.249603	762.420227	752.612305	763.609070	-12.121250
196.627457	756.698914	759.596680	762.717468	207.696365
197.005310	758.705078	755.732910	759.670959	-32.497536
197.383133	754.395508	754.172607	763.237549	-3966.812744
197.760910	759.373840	746.519470	761.305664	-15.028537
198.138687	750.977600	752.166443	759.745300	737.498718
198.516449	752.463623	750.383118	755.361511	-139.287704
198.894180	754.618469	743.101501	748.971436	49.032295
199.271866	752.686584	737.083008	745.181946	48.095631
199.649536	750.308899	740.129395	745.850769	43.795158
200.027191	745.479187	748.079834	756.996094	442.847748
200.404816	748.005554	754.395569	762.420227	225.581223
200.782410	751.423401	766.506836	766.135437	97.537704
201.159988	743.398743	778.469543	769.256042	73.728851
201.537537	738.420471	784.562439	773.788574	76.650620
201.915070	740.203674	782.630615	763.831970	55.691727
202.292557	747.336731	782.036133	756.773254	27.195061
202.670029	753.652527	780.772949	756.698914	11.232815
203.047485	748.377014	781.516052	761.528564	39.685974
203.424911	744.810486	776.240540	758.630859	43.971844
203.802292	741.987000	777.652344	759.448181	48.958401
204.179688	745.553467	774.977356	765.169434	66.666801
204.557037	746.668030	769.999084	767.918640	91.082939
204.934357	743.101563	769.924805	759.670959	61.772537
205.311661	743.695984	763.460449	758.853699	76.691750
205.688934	743.695984	770.519226	758.927979	56.786552
206.066177	740.500977	768.958923	762.048645	75.717583
206.443390	737.157410	773.342712	760.488281	64.476097
206.820587	734.036621	770.445007	756.475891	61.632145
207.197769	740.426575	765.095154	755.435730	60.843208
207.574921	737.974609	766.729797	750.977539	45.219421
207.952042	739.089172	774.828796	747.188171	22.661119
208.329147	740.649475	789.169189	744.141785	7.197712
208.706223	755.435730	809.528137	774.977356	36.126373
209.083267	757.367615	802.617981	784.933899	60.919472
209.460297	753.503906	793.775940	793.478760	99.262070
209.837280	737.677429	772.451111	759.448059	62.606628
210.214264	733.516418	769.776184	746.890930	36.885269
210.591217	726.383484	768.958923	743.027161	39.092201
210.968124	719.919128	766.506836	747.708252	59.649048
211.345016	723.411316	765.540955	758.407898	83.068794
211.721893	735.596863	766.209656	757.739197	72.330330
212.098724	743.175781	767.472839	758.779480	64.220528
212.475555	741.318176	773.342773	760.711243	60.556786
212.852356	736.785828	772.005310	761.751465	70.885872
213.229126	739.757874	772.748352	754.618408	45.044922
213.605865	736.191406	770.519226	749.565857	38.960968
213.982590	725.491760	768.215820	747.485352	51.478233
214.359283	721.851013	766.952637	744.438965	50.082348
214.735931	719.844727	762.271667	743.844543	56.567398
215.112579	731.138733	771.708008	745.330566	34.981728
215.489197	728.463867	770.742126	753.578186	59.402443
215.865799	736.785828	777.949524	751.869324	36.642715
216.242355	737.454529	772.896973	747.633972	28.721054
216.618896	741.392578	768.736023	752.835205	41.847790
216.995407	739.386414	760.636963	751.274841	55.944096
217.371902	730.470032	752.240723	755.435791	114.676010
217.748367	727.497986	768.215820	749.714539	54.562218
218.124802	724.154358	776.612061	755.435791	59.631725
218.501236	729.281250	787.460266	749.788818	35.249081
218.877609	730.321472	778.989746	750.234619	40.916073
219.253983	730.990173	778.841125	752.166504	44.254772
219.630295	733.442139	770.147705	757.144775	64.575050
220.006592	729.206848	765.318054	758.482178	81.069931
220.382889	725.714661	756.104492	756.476013	101.222519
220.759140	720.587708	768.290100	751.646301	65.109093
221.135391	722.891174	772.896912	753.726807	61.664188
221.511581	724.377258	777.726563	750.829041	49.582245
221.887772	718.135803	772.302429	755.510071	68.998703
222.263931	719.621887	773.788574	756.996094	68.998512
222.640060	721.256531	773.491394	756.773193	67.994171
223.016159	730.172852	768.513000	763.460449	86.821777
223.392212	730.841553	762.345886	756.476013	81.368042
223.768265	727.795166	758.779358	761.305664	108.153534
224.144302	731.064453	758.184998	753.355225	82.191460
224.520294	731.658875	760.116882	757.070374	89.294724
224.896286	739.534973	764.797913	757.813477	72.353035
225.272217	735.448303	773.565613	759.225159	62.378105
225.648148	738.717712	775.497559	754.395508	42.626049
226.024048	736.265625	771.039368	752.166443	45.726505
226.399902	734.705261	769.479004	746.668152	34.402081
226.775772	727.795166	768.438721	754.989990	66.910545
227.151581	734.482422	773.714172	753.355286	48.106098
227.527374	729.801270	774.977356	758.407898	63.322502
227.903137	734.110840	771.708008	749.045715	39.723404
228.278870	730.247253	771.559387	755.584290	61.330738
228.654572	737.008728	766.358337	753.875427	57.468224
229.030273	738.717712	770.816406	758.259277	60.879627
229.405930	734.333740	771.410828	758.184875	64.328506
229.781555	735.448303	779.435547	764.946472	67.060738
230.157181	732.996338	776.612061	767.027039	78.023926
230.532761	737.083008	778.395325	762.940247	62.589661
230.908325	740.798157	769.553284	757.664856	58.656319
231.283859	751.497742	776.166260	758.407898	28.012045
231.659332	743.770264	769.479004	755.138489	44.219299
232.034821	735.448303	769.330383	750.383118	44.078800
232.410263	722.148132	770.816406	743.844543	44.580193
232.785690	730.544373	776.760681	739.386414	19.131863
233.161087	739.906494	780.847229	738.420410	-3.629842
233.536469	742.878601	774.680176	743.250061	1.168055
233.911804	737.677429	779.212646	749.788757	29.159178
234.287140	731.436035	776.091980	755.807312	54.575661
234.662430	732.773438	775.348877	756.030273	54.625004
235.037704	738.940613	759.670959	760.191162	102.509377
235.412933	733.813721	765.020813	761.008484	87.142891
235.788162	734.036621	768.364441	757.144714	67.315933
236.163345	729.949890	774.903076	758.259277	62.975262
236.538513	735.225403	772.228210	760.265442	67.670647
236.913635	728.538147	773.268372	761.157043	72.923615
237.288742	729.875671	777.429382	762.123047	67.812531
237.663834	730.767273	776.760559	760.934143	65.589722
238.038879	740.575195	782.704834	759.819580	45.678970
238.413910	740.352356	788.574768	764.277771	49.614719
238.788910	743.398743	794.890564	765.243713	42.424156
239.163879	729.206848	789.837952	765.615234	60.049023
239.538834	722.668274	777.355164	759.819641	67.934685
239.913757	717.095459	772.079590	762.048767	81.756874
240.288651	730.172852	765.615234	765.615234	100.000000
240.663528	734.556641	771.262268	764.352051	81.173958
241.038361	735.968445	768.513000	762.643127	81.963577
241.413177	731.213074	769.479004	765.912415	90.679466
241.787979	729.058350	769.776184	766.358215	91.605721
242.162735	734.853821	775.423157	767.472839	80.403137
242.537476	729.429749	779.881348	761.602844	63.770222
242.912170	743.844482	781.070129	756.624573	34.331413
243.286865	733.367859	780.772949	754.989929	45.611282
243.661514	738.197510	773.862793	754.692688	46.249958
244.036148	721.107849	772.822571	752.835144	61.350605
244.410751	718.581543	769.776184	752.909424	67.053658
244.785339	723.039795	773.788513	754.841309	62.664665
245.159882	728.538147	778.172363	764.574951	72.604759
245.534378	738.494690	778.543945	764.946533	66.048279
245.908890	735.151123	776.314758	764.649231	71.660599
246.283356	732.179016	774.680176	751.349121	45.104900
246.657791	728.909668	781.144531	748.228333	36.984234
247.032196	722.816895	791.844055	746.296570	34.015125
247.406586	722.742493	792.810059	757.813477	50.053093
247.780960	719.993347	792.661438	760.042480	55.112408
248.155289	732.104675	790.209473	759.373840	46.931004
248.529602	735.894104	787.014404	758.853699	44.912872
248.903870	743.621643	786.865906	753.949707	23.883085
249.278122	741.912598	788.872070	762.791748	44.462063
249.652344	741.615479	785.454102	759.002258	39.660870
250.026550	736.414307	783.076416	767.324219	66.241997
250.400711	739.832214	782.779114	766.283936	61.591690
250.774857	736.785828	791.175354	760.265442	43.169369
251.148987	735.299805	790.655273	756.624512	38.523216
251.523071	726.234863	790.432312	756.401672	46.990665
251.897125	729.727051	789.169189	765.540833	60.249821
252.271164	725.789063	794.890442	761.900085	52.258034
252.645187	724.302917	791.546875	762.494568	56.795662
253.019165	716.724060	792.884338	756.104492	51.707310
253.393112	730.544373	790.580994	762.717468	53.589119
253.767044	730.024231	787.385925	759.076660	50.647789
254.140930	736.191406	793.181458	756.921875	36.375591
254.514801	732.253357	792.141296	750.457520	30.397043
254.888657	737.751709	795.187744	752.463623	25.614431
255.262466	738.643372	783.373535	756.773193	40.531536
255.636276	739.237793	786.791504	771.485107	67.812401
256.010010	742.135559	784.636719	769.850403	65.209618
256.383759	742.209900	788.723450	769.627625	58.945671
256.757446	738.569031	786.568665	763.163269	51.238388
257.131134	738.643372	790.283752	765.020813	51.079098
257.504791	736.934326	786.419983	767.918640	62.612717
257.878418	737.603088	781.664612	762.420227	56.323833
258.252014	734.853943	781.441711	762.791748	59.968113
258.625580	737.083008	797.714050	760.711243	38.970524
258.999115	735.596924	813.540527	764.500732	37.082977
259.372650	737.157288	825.057434	761.008484	27.134422
259.746124	738.346191	829.738464	756.178772	19.512131
260.119598	735.819824	829.441345	752.092102	17.380917
260.493042	732.179016	832.264832	758.779358	26.577534
260.866425	733.813660	831.818909	764.723633	31.539099
261.239838	739.832214	826.023376	764.649353	28.793137
261.613159	740.723816	823.051270	760.414063	23.916986
261.986511	732.922058	813.763428	762.568848	36.672794
262.359802	728.389587	815.769592	755.584412	31.122480
262.733063	730.990173	808.710754	752.389404	27.533545
263.106293	734.185242	810.271179	744.661865	13.769461
263.479523	742.061279	811.311462	755.881592	19.957077
263.852692	741.392578	810.494141	755.361511	20.215076
264.225861	743.472961	809.156738	759.596680	24.547489
264.598969	741.392578	806.778992	749.863098	12.954556
264.972076	738.271790	816.289734	751.349121	16.761953
265.345154	736.785828	822.828308	748.822815	13.989587
265.718201	726.680603	829.069763	759.670959	32.220554
266.091217	724.525696	834.122314	763.311829	35.389900
266.464203	723.634094	840.512390	766.283936	36.490814
266.837158	725.417480	839.026306	770.965027	40.091557
267.210114	733.442200	830.778748	763.683350	31.068649
267.583038	735.225403	836.351379	767.101257	31.520937
267.955902	741.169739	836.277161	757.739075	17.421707
268.328766	732.104797	852.995300	762.123047	24.830940
268.701569	733.442200	844.598938	757.813477	21.925146
269.074371	723.039734	849.354309	759.373840	28.764778
269.447144	722.593933	843.335876	762.123047	32.738510
269.819885	718.358643	850.766113	767.918640	37.429909
270.192596	728.612488	855.001282	769.181824	32.098839
270.565277	732.327637	855.595764	767.472839	28.511185
270.937927	734.928223	859.162292	763.311829	22.846878
271.310577	732.996338	869.862000	754.767029	15.906612
271.683136	733.070618	884.945374	751.869141	12.377648
272.055725	731.064453	891.038269	752.389343	13.330237
272.428284	730.544373	897.354004	753.281006	13.630288
272.800812	733.070618	895.496399	758.184998	15.462065
273.173279	735.076843	892.821533	760.934143	16.391867
273.545776	735.448303	892.152771	769.627625	21.811325
273.918152	737.603088	895.422058	771.187988	21.280649
274.290558	729.355469	897.725403	768.215881	23.080376
274.662964	733.442139	894.307556	769.256104	22.263309
275.035278	728.538147	892.821472	763.014648	20.986002
275.407593	734.928223	893.936035	772.079590	23.364492
275.779907	731.584656	900.697571	769.478943	22.407684
276.152161	734.333801	902.332275	764.426331	17.912382
276.524384	738.049011	909.613953	759.596680	12.559483
276.896606	736.562927	908.573730	751.051941	8.423316
277.268799	737.008728	914.815125	759.150879	12.452955
277.640930	739.163513	923.954407	754.767090	8.443910
278.013031	744.810486	931.830383	765.318054	10.965447
278.385162	733.888000	934.059509	765.986755	16.035625
278.757233	732.104736	928.338196	769.478943	19.045788
279.129272	732.030334	931.607483	770.296204	19.173471
279.501282	747.485352	939.334961	769.553223	11.502693
279.873230	741.541199	946.913818	762.048645	9.985482
280.245178	744.216003	955.607239	762.345947	8.576488
280.617126	736.265625	966.232605	762.345947	11.340899
280.988983	741.764099	972.919739	763.163269	9.257473
281.360870	735.448303	976.634949	762.568848	11.244630
281.732697	737.751770	986.814453	762.123047	9.785198
282.104492	730.321472	1002.418030	759.596741	10.759147
282.476288	727.349304	1026.640625	753.280945	8.664348
282.848053	730.544373	1021.513733	754.692810	8.299306
283.219757	733.739441	1025.749023	753.578186	6.793868
283.591461	735.225403	1016.907043	758.259277	8.177272
283.963135	727.795105	1020.473450	761.454285	11.500400
284.334747	730.395691	1025.451782	770.965027	13.749702
284.706360	732.922058	1037.265991	773.639893	13.378888
285.077942	739.832214	1052.943848	768.884521	9.278578
285.449524	740.203674	1066.244141	766.432556	8.044671
285.821014	734.928223	1066.912720	763.757629	8.683962
286.192535	730.395752	1085.414185	757.367615	7.597313
286.563995	733.888000	1098.119995	757.218994	6.405531
286.935425	738.271912	1108.893677	759.893982	5.833999
287.306824	738.049011	1107.556274	771.336609	9.008645
287.678223	731.510254	1101.463501	773.045593	11.227186
288.049561	734.408020	1097.896973	776.463440	11.569931
288.420898	737.974609	1089.277832	768.736023	8.756371
288.792145	743.324402	1090.986694	762.940369	5.642248
289.163452	741.838379	1100.274780	756.104492	3.980096
289.534668	732.773438	1114.020630	756.178772	6.139149
289.905914	724.748718	1122.565552	762.643066	9.525577
290.277039	726.234802	1140.769653	766.581238	9.732942
290.648193	736.414246	1162.911987	772.302490	8.414639
291.019318	742.432800	1188.769165	780.995911	8.639921
291.390381	740.575195	1194.193237	778.023743	8.255525
291.761475	737.083008	1190.626831	777.726563	8.961329
292.132507	737.974609	1181.116089	764.203430	5.918837
292.503510	747.113953	1177.995239	763.386169	3.776496
292.874481	755.881653	1177.623779	771.559387	3.717375
293.245422	751.720703	1180.595947	777.503662	6.011762
293.616364	746.890930	1186.020020	780.104248	7.563452
293.987213	731.287415	1205.412964	770.147705	8.196202
294.358093	729.281250	1225.994751	768.438782	7.883323
294.728943	721.628113	1255.418823	766.581238	8.421489
295.099731	726.829285	1276.595093	768.958801	7.663175
295.470490	727.795166	1295.319458	769.181824	7.292491
295.841248	725.491760	1309.213867	769.627625	7.561109
296.211975	727.943665	1327.046509	764.352051	6.077151
296.582642	732.699036	1343.095947	763.088867	4.978700
296.953308	739.386414	1367.541626	765.763855	4.199192
297.323883	740.946716	1380.172974	767.175598	4.103223
297.694519	740.946777	1403.355469	765.020813	3.634318
298.065063	740.872375	1406.624634	763.311829	3.370541
298.435608	738.569031	1402.612305	761.825867	3.502307
298.806122	737.454529	1386.488647	756.550293	2.942182
299.176575	739.832214	1368.210327	759.522461	3.133503
299.547028	742.135559	1352.309448	765.318054	3.799326
299.917450	738.494812	1329.498657	770.370605	5.393500
300.287872	734.556702	1321.250977	766.804138	5.496463
300.658234	735.076843	1318.947632	764.797852	5.090340
301.028564	735.745605	1320.433716	767.324219	5.400933
301.398865	733.293457	1325.411987	763.683350	5.132400
301.769135	724.897278	1330.687500	765.392273	6.684657
302.139374	727.720764	1340.049683	767.992859	6.576873
302.509583	723.857117	1338.860718	770.519226	7.587290
302.879791	727.497986	1339.157837	768.290100	6.669085
303.249939	730.544434	1340.569702	764.054871	5.493287
303.620087	737.528809	1345.473633	762.791748	4.155466
303.990173	736.488586	1348.965942	761.974426	4.161107
304.360260	739.163513	1348.743042	766.432617	4.473428
304.730286	740.278015	1347.034058	763.832031	3.881958
305.100281	740.129395	1352.978271	768.513123	4.631440
305.470276	736.711426	1358.476685	766.061096	4.720378
305.840179	735.894226	1374.526001	768.884521	5.165777
306.210144	736.785828	1374.897461	759.819641	3.609684
306.579987	733.813660	1385.002808	761.825867	4.301701
306.949890	726.680664	1386.340210	765.838196	5.936021
307.319702	728.835388	1408.630981	771.262207	6.241114
307.689484	724.451477	1429.287109	773.788513	6.999793
308.059265	727.720764	1452.989624	775.423157	6.577201
308.429016	722.816833	1472.531250	780.847351	7.740350
308.798737	724.005676	1492.667358	773.714172	6.466889
309.168396	725.194580	1515.106812	769.924805	5.662683
309.538055	732.550537	1537.174683	767.027039	4.284796
309.907684	741.020996	1551.812378	778.915466	4.673763
310.277313	738.346130	1572.319946	777.652344	4.713123
310.646851	733.293518	1577.744141	773.045593	4.707448
311.016388	725.120300	1592.827515	768.067200	4.949469
311.385895	727.943848	1586.734741	766.135437	4.447135
311.755371	726.903503	1589.706665	766.061096	4.538415
312.124817	727.423645	1594.239258	761.231384	3.900223
312.494232	728.463867	1603.006836	764.277832	4.095163
312.863617	733.219238	1612.146118	770.965027	4.294531
313.232971	732.847656	1600.480591	774.234314	4.770065
313.602295	735.968445	1596.245239	772.005188	4.188971
313.971619	730.544434	1585.471558	767.695618	4.345538
314.340820	732.996399	1591.415649	760.934143	3.254557
314.710083	731.956116	1610.585815	762.197266	3.441854
315.079285	735.596924	1629.681641	761.082764	2.850495
315.448486	731.956055	1658.065308	767.472839	3.835053
315.817596	727.869446	1650.857910	771.336609	4.709394
316.186707	724.600098	1646.696899	771.559570	5.092684
316.555786	728.761047	1625.223267	773.045593	4.939923
316.924866	732.253235	1618.090454	769.776184	4.235874
317.293884	738.123230	1610.734375	766.581238	3.261247
317.662872	743.324402	1595.651001	766.729797	2.746059
318.031830	742.581360	1596.096680	766.135437	2.759655
318.400757	736.042786	1605.830444	776.389160	4.638647
318.769684	729.578430	1622.028320	777.132141	5.328446
319.138550	723.411316	1638.151978	777.875244	5.954030
319.507416	726.309082	1641.718628	776.389160	5.470784
319.876190	721.479492	1655.984741	766.804016	4.850109
320.244995	734.259521	1660.591431	770.147705	3.874225
320.613770	737.083069	1657.916626	762.420166	2.751539
320.982483	739.757874	1635.402954	769.924805	3.368179
321.351166	726.977844	1621.062500	766.581238	4.429491
321.719818	723.559875	1612.740601	770.593506	5.289547
322.088440	726.234863	1630.944702	762.717346	4.032506
322.457062	732.550537	1642.981812	763.311829	3.378760
322.825623	734.110901	1666.907227	761.454285	2.931335
323.194183	737.454529	1688.975098	765.466614	2.943928
323.562653	743.324402	1725.457642	765.095154	2.216680
323.931183	737.751709	1772.194214	764.723633	2.607388
324.299591	733.516418	1809.419922	775.497559	3.901943
324.668060	726.606384	1850.434937	774.903076	4.297514
325.036407	733.293640	1879.858765	782.853455	4.322459
