Jaz Data File
++++++++++++++++++++++++++++++++++++
Date: Fri Jun 04 16:45:24 2021
User: jaz
Dark Spectrum Present: Yes
Reference Spectrum Present: Yes
Processed Spectrum Present: Yes
Spectrometers: JAZA3586
Integration Time (usec): 60600 (JAZA3586)
Spectra Averaged: 10 (JAZA3586)
Boxcar Smoothing: 1 (JAZA3586)
Correct for Electrical Dark: No (JAZA3586)
Strobe/Lamp Enabled: Yes (JAZA3586)
Correct for Detector Non-linearity: No (JAZA3586)
Correct for Stray Light: No (JAZA3586)
Number of Pixels in Processed Spectrum: 2048
>>>>>Begin Processed Spectral Data<<<<<
W	D	R	S	P
191.335022	0.000000	0.000000	0.000000	0.000000
191.713211	232.493210	234.870911	230.561340	-81.249481
192.091385	473.456940	475.314545	468.107147	-287.994080
192.469528	711.374268	717.838623	706.024414	-82.759270
192.847641	721.033630	726.829285	714.272156	-116.664558
193.225739	724.451599	734.110840	716.278259	-84.616791
193.603790	736.042725	744.959045	722.891174	-147.499741
193.981842	747.039551	755.361511	736.785828	-123.212830
194.359863	754.246887	760.488464	742.581360	-186.900314
194.737854	757.367676	759.893982	743.695984	-541.173218
195.115829	756.401672	756.401672	741.243958	0.000000
195.493774	757.367676	752.983826	742.209961	345.762604
195.871704	756.773254	751.646301	743.250183	263.764282
196.249603	758.556458	750.754700	745.850769	162.856735
196.627457	758.259277	756.847473	748.228333	710.505371
197.005310	753.949707	758.556458	754.618408	14.515680
197.383133	750.085999	758.927979	752.983704	32.772129
197.760910	746.222351	754.321228	752.909485	82.568657
198.138687	744.290344	752.092224	750.531738	79.998589
198.516449	742.952942	748.822754	752.240723	158.229614
198.894180	746.742371	747.782532	756.847473	971.493958
199.271866	757.590515	744.067444	754.172607	25.274641
199.649536	756.030212	737.231689	746.816650	49.012157
200.027191	751.794922	740.723877	748.897156	26.174278
200.404816	744.736145	748.005554	749.045715	131.814957
200.782410	741.838379	768.958801	750.308899	31.232994
201.159988	745.404846	780.104309	753.132324	22.269733
201.537537	744.290344	791.249695	764.129211	42.246895
201.915070	754.989929	783.968018	771.930969	58.461552
202.292557	752.240723	779.212646	767.101379	55.096764
202.670029	753.355286	767.472839	764.649353	80.000175
203.047485	744.290283	769.850525	758.705078	56.395378
203.424911	742.729980	773.788574	753.875427	35.885227
203.802292	742.729980	777.800964	750.308899	21.610226
204.179688	738.940613	783.447937	756.624573	39.732697
204.557037	741.318298	781.070251	761.305664	50.280212
204.934357	736.488525	786.642883	763.906250	54.666683
205.311661	740.723816	781.887512	766.506836	62.635338
205.688934	734.853821	779.064148	768.587402	76.302490
206.066177	730.098572	777.503723	764.054871	71.629974
206.443390	726.309082	770.890808	758.705078	72.666534
206.820587	731.807556	764.352112	753.949707	68.036423
207.197769	741.021057	764.797913	751.794922	45.312405
207.574921	734.853943	775.200256	757.441895	55.985168
207.952042	723.931396	775.571777	759.225159	68.345276
208.329147	715.832458	773.862793	764.797852	84.378960
208.706223	748.822815	793.255859	780.327148	70.902939
209.083267	752.389343	799.794495	779.064026	56.269585
209.460297	758.407898	802.766602	775.348938	38.191017
209.837280	725.789001	784.711121	746.965271	35.939423
210.214264	728.909729	778.023743	749.194336	41.301056
210.591217	730.990234	770.296326	750.308899	49.149288
210.968124	737.974609	769.701843	751.943542	44.028210
211.345016	739.906494	774.234314	753.726807	40.259804
211.721893	734.333801	774.308655	751.274719	42.378937
212.098724	731.658875	761.825867	754.767029	76.600792
212.475555	731.213074	764.352112	753.949707	68.609818
212.852356	736.191406	768.215820	758.779358	70.533539
213.229126	740.872375	778.915466	760.488342	51.562496
213.605865	742.358459	775.125977	753.801086	34.920639
213.982590	733.888000	766.581238	753.578186	60.227089
214.359283	740.055176	761.231384	754.172607	66.666473
214.735931	732.476257	761.825745	757.218994	84.303810
215.112579	736.117004	777.355042	751.794922	38.018097
215.489197	729.132629	779.361267	750.234558	42.011749
215.865799	731.436035	777.726563	756.847473	54.895546
216.242355	737.454529	769.553284	754.544128	53.240692
216.618896	737.900330	765.020813	753.281006	56.712399
216.995407	740.055115	762.420227	747.262451	32.225800
217.371902	736.488586	764.426453	751.200500	52.659405
217.748367	732.104736	764.129150	752.315125	63.109314
218.124802	728.909668	767.695618	749.342957	52.682194
218.501236	728.612488	756.698914	747.039551	65.608429
218.877609	733.070618	759.150879	743.993164	41.880508
219.253983	733.442139	757.739197	747.262512	56.880852
219.630295	727.943665	767.770020	746.296570	46.082314
220.006592	731.138733	776.612000	751.051819	43.790752
220.382889	728.835266	775.348938	754.172607	54.472889
220.759140	729.578369	773.045593	753.949707	56.068310
221.135391	728.389587	763.386230	754.172668	73.673012
221.511581	737.454529	770.147705	747.411072	30.454498
221.887772	744.959167	774.011475	749.045715	14.066174
222.263931	743.547363	778.915466	750.011719	18.277359
222.640060	736.414307	778.023865	752.760925	39.285728
223.016159	731.733215	769.627502	760.265442	75.294266
223.392212	731.807434	767.770020	759.522400	77.066109
223.768265	734.556641	767.324219	762.494446	85.260513
224.144302	737.305908	770.221985	755.584412	55.530624
224.520294	737.528809	770.073425	757.664795	61.871941
224.896286	743.027161	768.810303	751.349121	32.276749
225.272217	737.603088	772.599792	759.225159	61.783161
225.648148	733.962219	774.160156	763.237549	72.827942
226.024048	726.011902	778.915466	771.039307	85.112236
226.399902	726.309082	781.887512	762.345886	64.839554
226.775772	725.045959	781.738953	753.875427	50.851906
227.151581	731.956055	776.834961	747.559753	34.768448
227.527374	728.538147	766.655518	753.726807	66.081841
227.903137	737.900391	761.825867	753.281006	64.285515
228.278870	741.912781	762.568848	756.996094	73.021225
228.654572	748.005554	771.187988	744.141785	-16.666798
229.030273	743.844543	774.903076	745.702148	5.980981
229.405930	731.064453	774.085754	751.794922	48.186523
229.781555	726.829163	767.844299	758.482239	77.174133
230.157181	719.696106	767.027039	756.030212	76.766090
230.532761	719.250305	764.352051	750.828918	70.016388
230.908325	715.980957	772.079590	757.887695	74.701889
231.283859	726.234802	769.107422	766.432617	93.761040
231.659332	731.436035	769.776184	768.736023	97.287018
232.034821	740.055115	758.110657	767.918640	154.321182
232.410263	727.423645	765.763855	763.609070	94.379829
232.785690	735.151123	767.695740	756.401672	65.296661
233.161087	734.482422	775.571777	751.497742	41.410530
233.536469	742.730042	771.856689	748.154053	18.622160
233.911804	741.021057	777.577942	749.788757	23.983719
234.287140	733.442200	772.896912	746.073547	32.014801
234.662430	735.076843	772.228210	745.181946	27.199814
235.037704	734.036560	764.500732	744.587585	34.634209
235.412933	738.791992	771.485168	752.835205	42.954567
235.788162	732.179016	772.822693	751.646301	47.897449
236.163345	733.293640	773.342773	755.955872	56.586071
236.538513	734.854004	771.410889	754.247009	53.048847
236.913635	732.773438	770.221985	759.671082	71.825600
237.288742	726.160461	775.200378	762.197327	73.484756
237.663834	724.228699	776.537781	757.887878	64.346725
238.038879	732.847717	775.348877	767.918701	82.517708
238.413910	735.671204	776.760559	767.249939	76.853813
238.788910	740.426575	775.125977	766.209656	74.304108
239.163879	737.603027	783.224915	756.698975	41.856987
239.538834	730.247131	780.550049	749.120117	37.518669
239.913757	728.315247	779.435547	761.008484	63.953533
240.288651	731.138733	774.903015	763.386169	73.684372
240.663528	736.562805	773.639954	775.794739	105.811623
241.038361	731.138733	774.085754	767.472839	84.602158
241.413177	721.850891	773.416992	764.277832	82.276810
241.787979	715.906738	774.234375	754.544128	66.241997
242.162735	718.210144	772.302429	755.881592	69.642921
242.537476	720.810730	775.200195	753.875427	60.792465
242.912170	718.210144	773.491272	758.630798	73.118362
243.286865	722.965515	769.999023	757.070496	72.512093
243.661514	728.761047	764.797852	759.968262	86.598175
244.036148	734.631042	769.627625	756.327393	61.995625
244.410751	734.928223	773.565674	757.293274	57.884384
244.785339	725.120300	773.342773	758.184875	68.566734
245.159882	729.949951	773.491394	759.671082	68.259407
245.534378	730.990173	783.522217	759.745361	54.738377
245.908890	736.191406	790.952454	754.618469	33.649948
246.283356	727.200684	784.265198	758.482178	54.817772
246.657791	727.423645	782.184753	758.036377	55.902325
247.032196	734.333801	780.327209	767.695801	72.536484
247.406586	737.305969	782.704834	765.689636	62.520653
247.780960	731.361633	779.138367	766.506897	73.561462
248.155289	726.754883	781.887512	755.658691	52.425957
248.529602	721.330811	786.271423	752.166443	47.482819
248.903870	726.309082	782.779114	746.965149	36.578812
249.278122	724.971619	783.968018	754.246887	49.622128
249.652344	734.482361	783.893738	754.246887	39.999950
250.026550	730.618652	788.351807	760.636902	51.994820
250.400711	739.757874	787.014404	761.157043	45.282990
250.774857	740.426575	783.819336	762.866028	51.712433
251.148987	740.055115	782.556213	763.460449	55.069950
251.523071	732.030334	775.274597	757.367615	58.591080
251.897125	732.327637	788.500488	759.968201	49.206268
252.271164	729.801331	791.918396	757.070496	43.899635
252.645187	728.240967	800.314636	759.893860	43.917416
253.019165	721.405090	795.187744	757.144714	48.439060
253.393112	727.572266	799.348633	762.643127	48.861294
253.767044	731.361633	795.930725	764.426453	51.208431
254.140930	729.578430	793.627380	761.677246	50.116070
254.514801	727.126465	785.899902	761.157043	57.901291
254.888657	720.736389	788.426208	761.602844	60.373119
255.262466	724.674500	781.738953	759.299500	60.677002
255.636276	726.160461	787.608887	757.664856	51.269653
256.010010	731.956055	795.113464	757.739075	40.823429
256.383759	737.157227	798.605652	764.277771	44.135460
256.757446	739.609192	800.166016	765.689636	43.067722
257.131134	737.305908	796.153625	762.791809	43.308224
257.504791	735.596924	797.193848	762.717468	44.029057
257.878418	731.658875	797.268250	762.494568	46.998913
258.252014	727.795166	799.794495	762.866028	48.709984
258.625580	721.107910	799.794495	757.739197	46.553410
258.999115	723.782776	799.868835	755.658691	41.894554
259.372650	730.618652	795.039124	751.646301	32.641254
259.746124	735.522644	808.933777	750.680359	20.647705
260.119598	729.801331	816.215393	741.689758	13.757515
260.493042	733.590759	827.658020	744.067444	11.137440
260.866425	734.705322	827.137878	746.742371	13.022520
261.239838	731.510315	824.314270	754.767029	25.060045
261.613159	721.256531	819.707520	753.280945	32.528282
261.986511	723.114075	814.877930	753.949707	33.603245
262.359802	738.123230	817.181335	749.120056	13.909802
262.733063	738.271912	815.472351	747.485352	11.934440
263.106293	736.042786	811.682861	751.720642	20.726917
263.479523	731.510254	813.243347	762.048645	37.363556
263.852692	740.575195	809.528137	769.701904	42.241432
264.225861	737.454529	814.655090	764.500671	35.033607
264.598969	740.500977	809.008057	760.636963	29.392563
264.972076	731.584656	815.175232	764.797852	39.733181
265.345154	732.550476	817.404297	767.695740	41.418598
265.718201	727.274963	818.815918	771.708069	48.539047
266.091217	737.528809	825.949036	769.181824	35.798386
266.464203	741.095276	830.110046	768.141602	30.384087
266.837158	733.590759	832.339050	764.723633	31.527506
267.210114	723.559875	829.292664	763.831970	38.088558
267.583038	722.519714	821.342285	769.404602	47.443501
267.955902	730.470032	824.834473	772.005188	44.015686
268.328766	731.138855	823.274109	774.680176	47.258045
268.701569	734.928223	830.630127	775.646057	42.546524
269.074371	737.008728	832.041931	770.593506	35.340046
269.447144	741.318176	837.837463	766.506836	26.097023
269.819885	739.832214	847.794006	760.191162	18.857550
270.192596	734.631042	849.577332	769.479004	30.316734
270.565277	739.832214	855.595764	766.804016	23.299046
270.937927	737.900208	853.961182	760.191101	19.206192
271.310577	737.974609	863.992004	751.572021	10.790108
271.683136	735.968445	863.620422	754.841370	14.784671
272.055725	724.525818	877.589355	762.123047	24.563152
272.428284	729.652771	889.626465	762.197327	20.343693
272.800812	739.312073	895.199219	758.482178	12.297425
273.173279	753.652527	893.341614	761.677185	5.744657
273.545776	751.572021	885.316895	763.980652	9.277836
273.918152	736.785828	887.991882	771.410828	22.899216
274.290558	731.956116	880.190002	769.479004	25.313299
274.662964	730.395752	876.549133	773.862793	29.740702
275.035278	731.510315	877.812317	765.169434	23.006601
275.407593	729.950012	879.521301	766.061096	24.143059
275.779907	737.231628	885.688477	757.739075	13.813743
276.152161	738.049011	883.830872	765.466614	18.807280
276.524384	742.507141	889.552185	763.831970	14.502243
276.896606	730.618652	889.329285	763.386169	20.646076
277.268799	725.194519	889.849365	758.779297	20.397078
277.640930	718.061462	901.514954	761.157043	23.491283
278.013031	720.216309	912.883301	764.575012	23.023510
278.385162	723.931396	920.759338	757.813477	17.214060
278.757233	727.795166	916.375488	756.030273	14.972457
279.129272	725.268860	912.511719	756.996094	16.944429
279.501282	725.640442	916.895508	766.952698	21.600607
279.873230	722.296692	920.907898	767.324219	22.671192
280.245178	722.371094	927.149353	767.695801	22.133554
280.617126	726.903503	938.443359	772.599670	21.601683
280.988983	737.603088	945.279236	773.491394	17.280899
281.360870	748.154053	958.430847	773.937195	12.261525
281.732697	747.039551	971.359436	767.918640	9.307730
282.104492	746.816650	984.288147	763.831970	7.165205
282.476288	742.432800	986.145691	766.878418	10.030499
282.848053	738.271912	991.792786	764.797852	10.463020
283.219757	736.637207	999.371582	768.364441	12.075784
283.591461	735.448425	1004.424133	766.358215	11.491666
283.963135	734.036621	1000.634705	775.200256	15.440334
284.334747	730.618652	1007.024719	777.503662	16.962366
284.706360	733.962341	1021.811035	776.463379	14.765061
285.077942	738.197510	1034.368164	770.890808	11.038669
285.449524	736.785828	1040.015259	772.599670	11.810807
285.821014	736.785828	1047.073853	773.639954	11.877393
286.192535	740.278015	1058.888062	777.800842	11.777039
286.563995	743.770264	1065.055176	771.485168	8.626270
286.935425	736.265686	1069.439087	774.903015	11.596763
287.306824	735.076843	1064.312134	776.091980	12.457698
287.678223	730.172852	1065.575317	778.395325	14.377495
288.049561	726.977844	1063.717773	775.423157	14.386566
288.420898	721.776672	1065.278198	775.200256	15.552649
288.792145	728.686829	1067.804321	775.423157	13.781751
289.163452	738.569031	1068.621704	778.915466	12.224241
289.534668	729.504150	1076.275024	766.432556	10.649223
289.905914	723.857117	1090.243774	769.330383	12.411278
290.277039	716.426941	1115.952515	770.296326	13.483338
290.648193	727.349365	1135.196899	782.036133	13.408630
291.019318	735.225403	1150.874756	776.612000	9.957094
291.390381	731.584534	1153.401001	771.410828	9.441617
291.761475	727.497864	1157.487671	774.605896	10.955616
292.132507	721.405090	1147.754028	776.314758	12.879045
292.503510	730.098572	1143.890503	774.382996	10.702100
292.874481	738.569031	1145.450806	776.686340	9.368154
293.245422	736.488586	1145.079224	777.280762	9.983629
293.616364	735.448303	1150.429077	779.064026	10.510300
293.987213	725.045898	1164.175049	766.581238	9.458570
294.358093	726.234802	1189.289429	769.107422	9.258653
294.728943	727.423645	1212.992065	764.575012	7.651109
295.099731	728.538147	1231.121826	754.767090	5.218821
295.470490	731.435974	1243.307495	751.051941	3.832205
295.841248	724.748779	1259.356812	752.389343	5.170249
296.211975	725.863281	1269.907837	763.237488	6.869696
296.582642	719.398926	1292.941650	764.277832	7.824859
296.953308	719.993347	1321.845337	767.027039	7.814827
297.323883	725.714661	1338.489380	764.946472	6.402322
297.694519	725.714661	1352.904053	769.627625	7.001548
298.065063	733.665039	1352.458130	768.513000	5.631601
298.435608	726.977844	1351.863647	773.119873	7.384074
298.806122	733.590759	1329.572876	764.797913	5.236257
299.176575	731.658875	1305.721802	762.568848	5.384422
299.547028	732.773376	1285.734253	750.011658	3.117450
299.917450	734.036621	1284.173950	756.327332	4.051845
300.287872	734.333801	1278.675537	751.943542	3.235053
300.658234	739.386414	1277.783813	755.064270	2.911949
301.028564	727.349304	1273.845825	757.813477	5.574450
301.398865	722.296814	1280.235840	764.426453	7.550940
301.769135	720.290588	1286.477295	776.760681	9.973758
302.139374	731.064453	1286.180054	773.416992	7.629499
302.509583	732.030457	1279.344238	774.085754	7.683947
302.879791	735.002502	1280.533081	771.559509	6.701184
303.249939	728.686829	1287.369019	768.215820	7.075398
303.620087	734.556702	1289.078003	763.237549	5.172181
303.990173	728.612488	1289.375122	762.271545	6.002372
304.360260	732.922058	1287.814819	764.575012	5.704337
304.730286	725.343079	1291.009766	766.209656	7.224498
305.100281	724.822998	1305.201538	766.358215	7.156574
305.470276	723.931335	1309.511108	763.757751	6.801194
305.840179	730.024231	1325.932007	763.980652	5.698268
306.210144	730.990234	1327.417969	760.859863	5.008089
306.579987	729.875671	1335.294067	767.027039	6.136478
306.949890	730.470032	1344.804810	772.674011	6.869866
307.319702	739.534973	1354.315796	774.977356	5.765044
307.689484	733.888000	1367.615845	771.633789	5.956151
308.059265	740.723816	1384.631226	777.503662	5.711977
308.429016	738.866211	1411.157227	773.937073	5.216619
308.798737	744.141785	1441.101196	768.735901	3.528773
309.168396	736.339905	1464.878296	759.522400	3.182055
309.538055	732.030457	1477.732544	759.299500	3.656828
309.907684	731.510315	1496.605469	762.568848	4.059434
310.277313	733.144958	1502.326660	762.940430	3.873658
310.646851	737.603088	1507.007813	761.528625	3.109617
311.016388	739.609314	1514.586548	763.163269	3.039309
311.385895	738.197510	1523.057129	767.472839	3.730008
311.755371	734.408142	1534.574097	776.389160	5.246539
312.124817	736.339905	1533.608032	777.503662	5.163101
312.494232	733.887939	1535.540039	773.639954	4.958761
312.863617	730.172852	1531.750610	763.906250	4.208375
313.232971	720.662109	1521.199585	762.494568	5.225546
313.602295	720.067688	1518.524780	757.887695	4.736636
313.971619	720.067688	1534.722656	764.352051	5.435966
314.340820	721.702332	1544.902222	766.061035	5.388570
314.710083	719.770508	1562.660522	776.612061	6.743650
315.079285	718.804504	1563.849487	779.138367	7.139722
315.448486	724.748779	1585.694336	780.624329	6.490021
315.817596	727.052063	1582.053589	772.451111	5.309821
316.186707	731.287415	1573.731812	767.175598	4.260006
316.555786	731.807556	1546.908203	764.649353	4.029171
316.924866	732.847717	1531.230469	768.884583	4.513733
317.293884	735.819824	1529.521484	770.965027	4.428012
317.662872	734.259460	1542.078735	772.451111	4.727747
318.031830	736.934387	1548.468750	764.946533	3.451751
318.400757	735.522644	1553.892700	772.971191	4.575992
318.769684	734.482422	1564.443726	769.701904	4.243509
319.138550	724.525818	1577.075195	782.407715	6.789272
319.507416	716.278259	1599.366089	775.423157	6.697510
319.876190	720.662109	1605.013062	774.605896	6.099817
320.244995	734.408142	1605.235962	769.330383	4.010235
320.613770	737.380188	1582.870972	767.844299	3.603127
320.982483	738.197510	1565.484009	767.844299	3.583618
321.351166	732.921936	1557.087891	766.878357	4.120095
321.719818	738.420410	1548.320190	762.791748	3.009179
322.088440	736.339905	1559.465454	763.832031	3.339967
322.457062	735.225403	1573.731567	762.940369	3.305279
322.825623	736.339905	1601.817993	766.952698	3.537096
323.194183	733.367859	1620.913940	769.479004	4.068650
323.562653	734.259521	1658.065308	768.661621	3.723954
323.931183	726.532043	1690.758423	773.417053	4.862448
324.299591	725.120300	1739.055176	769.776184	4.404216
324.668060	721.776611	1760.974609	770.073425	4.647508
325.036407	717.541321	1786.980469	764.277771	4.370183
