Jaz Data File
++++++++++++++++++++++++++++++++++++
Date: Fri Jun 04 16:45:01 2021
User: jaz
Dark Spectrum Present: Yes
Reference Spectrum Present: Yes
Processed Spectrum Present: Yes
Spectrometers: JAZA3586
Integration Time (usec): 60600 (JAZA3586)
Spectra Averaged: 10 (JAZA3586)
Boxcar Smoothing: 1 (JAZA3586)
Correct for Electrical Dark: No (JAZA3586)
Strobe/Lamp Enabled: Yes (JAZA3586)
Correct for Detector Non-linearity: No (JAZA3586)
Correct for Stray Light: No (JAZA3586)
Number of Pixels in Processed Spectrum: 2048
>>>>>Begin Processed Spectral Data<<<<<
W	D	R	S	P
191.335022	0.000000	0.000000	0.000000	0.000000
191.713211	232.493210	234.870911	237.248596	199.999359
192.091385	473.456940	475.314545	474.274261	43.998684
192.469528	711.374268	717.838623	717.467041	94.251831
192.847641	721.033630	726.829285	718.804504	-38.462025
193.225739	724.451599	734.110840	730.915833	66.922791
193.603790	736.042725	744.959045	733.293640	-30.832050
193.981842	747.039551	755.361511	747.336731	3.571036
194.359863	754.246887	760.488464	743.324463	-174.994629
194.737854	757.367676	759.893982	752.240723	-202.942673
195.115829	756.401672	756.401672	747.856873	0.000000
195.493774	757.367676	752.983826	747.782532	218.646713
195.871704	756.773254	751.646301	749.937317	133.333328
196.249603	758.556458	750.754700	757.144714	18.095194
196.627457	758.259277	756.847473	766.061035	-552.609070
197.005310	753.949707	758.556458	764.203430	222.580383
197.383133	750.085999	758.927979	759.745300	109.243652
197.760910	746.222351	754.321228	769.627625	288.994049
198.138687	744.290344	752.092224	769.924805	328.567749
198.516449	742.952942	748.822754	770.890686	475.956360
198.894180	746.742371	747.782532	760.339661	1307.229248
199.271866	757.590515	744.067444	750.754700	50.549282
199.649536	756.030212	737.231689	752.017883	21.343853
200.027191	751.794922	740.723877	748.971436	25.503342
200.404816	744.736145	748.005554	755.138611	318.175720
200.782410	741.838379	768.958801	756.773193	55.068516
201.159988	745.404846	780.104309	766.878418	61.884449
201.537537	744.290344	791.249695	771.410889	57.753235
201.915070	754.989929	783.968018	770.221985	52.564045
202.292557	752.240723	779.212646	760.637024	31.129782
202.670029	753.355286	767.472839	756.178711	19.999395
203.047485	744.290283	769.850525	756.104492	46.221039
203.424911	742.729980	773.788574	761.008484	58.851677
203.802292	742.729980	777.800964	761.751465	54.237099
204.179688	738.940613	783.447937	759.002258	45.074932
204.557037	741.318298	781.070251	748.228333	17.382879
204.934357	736.488525	786.642883	753.280945	33.481476
205.311661	740.723816	781.887512	750.903320	24.729326
205.688934	734.853821	779.064148	759.893982	56.638714
206.066177	730.098572	777.503723	757.293274	57.366554
206.443390	726.309082	770.890808	760.859863	77.499870
206.820587	731.807556	764.352112	761.677246	91.780914
207.197769	741.021057	764.797913	754.098328	55.000000
207.574921	734.853943	775.200256	757.293274	55.616806
207.952042	723.931396	775.571777	752.315125	54.964211
208.329147	715.832458	773.862793	759.150940	74.647995
208.706223	748.822815	793.255859	778.246765	66.220871
209.083267	752.389343	799.794495	780.773010	59.874645
209.460297	758.407898	802.766602	779.955750	48.576378
209.837280	725.789001	784.711121	750.085938	41.235680
210.214264	728.909729	778.023743	750.531738	44.024113
210.591217	730.990234	770.296326	747.336731	41.587692
210.968124	737.974609	769.701843	754.841370	53.161774
211.345016	739.906494	774.234314	754.469788	42.424171
211.721893	734.333801	774.308655	753.652527	48.327194
212.098724	731.658875	761.825867	755.510071	79.063889
212.475555	731.213074	764.352112	761.008484	89.910301
212.852356	736.191406	768.215820	767.249939	96.983925
213.229126	740.872375	778.915466	766.432617	67.187607
213.605865	742.358459	775.125977	759.745300	53.061211
213.982590	733.888000	766.581238	763.014648	89.090744
214.359283	740.055176	761.231384	765.318054	119.298401
214.735931	732.476257	761.825745	760.191101	94.430420
215.112579	736.117004	777.355042	757.516296	51.892120
215.489197	729.132629	779.361267	755.881592	53.254406
215.865799	731.436035	777.726563	759.373779	60.353046
216.242355	737.454529	769.553284	754.915588	54.397934
216.618896	737.900330	765.020813	752.166443	52.602726
216.995407	740.055115	762.420227	756.773193	74.750702
217.371902	736.488586	764.426453	760.636902	86.435791
217.748367	732.104736	764.129150	759.299500	84.918846
218.124802	728.909668	767.695618	758.482178	76.245422
218.501236	728.612488	756.698914	756.921814	100.793625
218.877609	733.070618	759.150879	768.735901	136.752014
219.253983	733.442139	757.739197	767.249939	139.143600
219.630295	727.943665	767.770020	763.534851	89.365913
220.006592	731.138733	776.612000	751.794922	45.424908
220.382889	728.835266	775.348938	749.565918	44.568943
220.759140	729.578369	773.045593	751.126160	49.572502
221.135391	728.389587	763.386230	753.652405	72.186401
221.511581	737.454529	770.147705	753.875427	50.227295
221.887772	744.959167	774.011475	759.745300	50.894867
222.263931	743.547363	778.915466	761.231445	50.000088
222.640060	736.414307	778.023865	760.414063	57.678467
223.016159	731.733215	769.627502	762.494446	81.176430
223.392212	731.807434	767.770020	760.934143	80.991699
223.768265	734.556641	767.324219	760.265442	78.458046
224.144302	737.305908	770.221985	754.544128	52.370216
224.520294	737.528809	770.073425	755.138489	54.109348
224.896286	743.027161	768.810303	760.711243	68.587769
225.272217	737.603088	772.599792	758.259277	59.023239
225.648148	733.962219	774.160156	755.212891	52.865078
226.024048	726.011902	778.915466	748.302734	42.134842
226.399902	726.309082	781.887512	752.909485	47.861019
226.775772	725.045959	781.738953	751.051941	45.871597
227.151581	731.956055	776.834961	762.568848	68.211983
227.527374	728.538147	766.655518	762.568848	89.278717
227.903137	737.900391	761.825867	761.602844	99.067848
228.278870	741.912781	762.568848	755.510071	65.827103
228.654572	748.005554	771.187988	751.423523	14.743787
229.030273	743.844543	774.903076	759.522461	50.478615
229.405930	731.064453	774.085754	759.522461	66.148643
229.781555	726.829163	767.844299	754.172668	66.666862
230.157181	719.696106	767.027039	754.989990	74.568329
230.532761	719.250305	764.352051	755.212891	79.736572
230.908325	715.980957	772.079590	755.435791	70.331184
231.283859	726.234802	769.107422	753.503906	63.604939
231.659332	731.436035	769.776184	752.463684	54.844986
232.034821	740.055115	758.110657	757.887756	98.765472
232.410263	727.423645	765.763855	758.482178	81.007729
232.785690	735.151123	767.695740	757.218994	67.808052
233.161087	734.482422	775.571777	750.457458	38.878773
233.536469	742.730042	771.856689	747.931152	17.856880
233.911804	741.021057	777.577942	755.807312	40.447250
234.287140	733.442200	772.896912	767.695740	86.817360
234.662430	735.076843	772.228210	763.980652	77.800117
235.037704	734.036560	764.500732	754.915710	68.536736
235.412933	738.791992	771.485168	746.073669	22.272774
235.788162	732.179016	772.822693	750.754700	45.703747
236.163345	733.293640	773.342773	759.150879	64.563789
236.538513	734.854004	771.410889	762.791687	76.422493
236.913635	732.773438	770.221985	759.299500	70.833351
237.288742	726.160461	775.200378	754.246887	57.272579
237.663834	724.228699	776.537781	752.835144	54.687340
238.038879	732.847717	775.348877	754.692688	51.398529
238.413910	735.671204	776.760559	753.726807	43.942287
238.788910	740.426575	775.125977	756.921814	47.537533
239.163879	737.603027	783.224915	752.463684	32.573524
239.538834	730.247131	780.550049	756.104492	51.403301
239.913757	728.315247	779.435547	755.658691	53.488426
240.288651	731.138733	774.903015	760.785583	67.742119
240.663528	736.562805	773.639954	763.014648	71.342712
241.038361	731.138733	774.085754	765.689514	80.449776
241.413177	721.850891	773.416992	771.930969	97.118217
241.787979	715.906738	774.234375	768.587341	90.318428
242.162735	718.210144	772.302429	765.912415	88.186829
242.537476	720.810730	775.200195	757.367676	67.213287
242.912170	718.210144	773.491272	756.327454	68.951759
243.286865	722.965515	769.999023	758.259277	75.039612
243.661514	728.761047	764.797852	766.061035	103.505257
244.036148	734.631042	769.627625	771.559509	105.520210
244.410751	734.928223	773.565674	773.194153	99.038445
244.785339	725.120300	773.342773	767.324219	87.519188
245.159882	729.949951	773.491394	766.061035	82.934975
245.534378	730.990173	783.522217	764.203430	63.224758
245.908890	736.191406	790.952454	762.940369	48.846695
246.283356	727.200684	784.265198	760.042664	57.552368
246.657791	727.423645	782.184753	755.212891	50.746315
247.032196	734.333801	780.327209	763.386230	63.166508
247.406586	737.305969	782.704834	762.866028	56.301098
247.780960	731.361633	779.138367	764.723633	69.828964
248.155289	726.754883	781.887512	764.054871	67.655014
248.529602	721.330811	786.271423	765.095154	67.391335
248.903870	726.309082	782.779114	764.277771	67.236885
249.278122	724.971619	783.968018	758.779358	57.304752
249.652344	734.482361	783.893738	753.726807	38.947399
250.026550	730.618652	788.351807	751.646301	36.422138
250.400711	739.757874	787.014404	751.349121	24.528351
250.774857	740.426575	783.819336	750.308899	22.774132
251.148987	740.055115	782.556213	749.045715	21.153807
251.523071	732.030334	775.274597	747.931152	36.769775
251.897125	732.327637	788.500488	751.126221	33.465603
252.271164	729.801331	791.918396	762.271667	52.272812
252.645187	728.240967	800.314636	757.887695	41.133923
253.019165	721.405090	795.187744	759.893860	52.165066
253.393112	727.572266	799.348633	760.636902	46.066189
253.767044	731.361633	795.930725	759.373779	43.383213
254.140930	729.578430	793.627380	758.630859	45.359726
254.514801	727.126465	785.899902	751.646301	41.719250
254.888657	720.736389	788.426208	762.345886	61.470837
255.262466	724.674500	781.738953	765.169434	70.963501
255.636276	726.160461	787.608887	768.364441	68.681953
256.010010	731.956055	795.113464	760.859863	45.764713
256.383759	737.157227	798.605652	754.172607	27.690508
256.757446	739.609192	800.166016	751.349121	19.386633
257.131134	737.305908	796.153625	756.030212	31.818233
257.504791	735.596924	797.193848	767.324219	51.507919
257.878418	731.658875	797.268250	766.952637	53.793777
258.252014	727.795166	799.794495	762.717468	48.503651
258.625580	721.107910	799.794495	756.698914	45.231350
258.999115	723.782776	799.868835	761.008362	48.925632
259.372650	730.618652	795.039124	770.370605	61.707020
259.746124	735.522644	808.933777	767.027039	42.915009
260.119598	729.801331	816.215393	761.528564	36.715359
260.493042	733.590759	827.658020	758.110596	26.066280
260.866425	734.705322	827.137878	760.265442	27.652723
261.239838	731.510315	824.314270	758.705078	29.303453
261.613159	721.256531	819.707520	759.522461	38.868000
261.986511	723.114075	814.877930	753.949707	33.603245
262.359802	738.123230	817.181335	754.321228	20.488726
262.733063	738.271912	815.472351	749.565857	14.629379
263.106293	736.042786	811.682861	757.441895	28.290703
263.479523	731.510254	813.243347	754.915710	28.636450
263.852692	740.575195	809.528137	755.658691	21.875057
264.225861	737.454529	814.655090	758.333496	27.045097
264.598969	740.500977	809.008057	761.825745	31.127831
264.972076	731.584656	815.175232	761.825745	36.177628
265.345154	732.550476	817.404297	750.754639	21.453556
265.718201	727.274963	818.815918	746.816650	21.347481
266.091217	737.528809	825.949036	749.342957	13.361363
266.464203	741.095276	830.110046	753.578125	14.023346
266.837158	733.590759	832.339050	757.144714	23.852520
267.210114	723.559875	829.292664	756.253113	30.920624
267.583038	722.519714	821.342285	756.624695	34.511326
267.955902	730.470032	824.834473	757.739197	28.897713
268.328766	731.138855	823.274109	762.494446	34.032131
268.701569	734.928223	830.630127	762.494568	28.804386
269.074371	737.008728	832.041931	772.005188	36.825508
269.447144	741.318176	837.837463	774.085754	33.949253
269.819885	739.832214	847.794006	781.887512	38.953873
270.192596	734.631042	849.577332	777.577942	37.362579
270.565277	739.832214	855.595764	775.571777	30.872898
270.937927	737.900208	853.961182	768.438782	26.312527
271.310577	737.974609	863.992004	762.271667	19.280718
271.683136	735.968445	863.620422	758.853699	17.927849
272.055725	724.525818	877.589355	755.435730	20.194170
272.428284	729.652771	889.626465	759.670959	18.764452
272.800812	739.312073	895.199219	757.664795	11.773083
273.173279	753.652527	893.341614	764.500732	7.765965
273.545776	751.572021	885.316895	764.575012	9.722235
273.918152	736.785828	887.991882	766.209656	19.459425
274.290558	731.956116	880.190002	762.940247	20.902191
274.662964	730.395752	876.549133	764.129150	23.080820
275.035278	731.510315	877.812317	763.609070	21.940065
275.407593	729.950012	879.521301	768.513000	25.782347
275.779907	737.231628	885.688477	767.249817	20.220144
276.152161	738.049011	883.830872	764.277771	17.991785
276.524384	742.507141	889.552185	761.974426	13.238995
276.896606	730.618652	889.329285	758.556458	17.602983
277.268799	725.194519	889.849365	766.283997	24.954916
277.640930	718.061462	901.514954	759.373840	22.519264
278.013031	720.216309	912.883301	763.088928	22.252188
278.385162	723.931396	920.759338	756.030212	16.308058
278.757233	727.795166	916.375488	764.277832	19.345957
279.129272	725.268860	912.511719	758.779358	17.896811
279.501282	725.640442	916.895508	764.054871	20.085443
279.873230	722.296692	920.907898	767.398438	22.708561
280.245178	722.371094	927.149353	769.181702	22.859169
280.617126	726.903503	938.443359	765.986633	18.475540
280.988983	737.603088	945.279236	759.745300	10.661895
281.360870	748.154053	958.430847	758.927917	5.123659
281.732697	747.039551	971.359436	756.401672	4.173559
282.104492	746.816650	984.288147	758.110657	4.755942
282.476288	742.432800	986.145691	764.352051	8.993882
282.848053	738.271912	991.792786	771.782410	13.218043
283.219757	736.637207	999.371582	767.621399	11.792973
283.591461	735.448425	1004.424133	763.906250	10.580072
283.963135	734.036621	1000.634705	757.739075	8.890707
284.334747	730.618652	1007.024719	751.572021	7.580647
284.706360	733.962341	1021.811035	751.423401	6.066055
285.077942	738.197510	1034.368164	754.618469	5.544425
285.449524	736.785828	1040.015259	761.157043	8.037220
285.821014	736.785828	1047.073853	755.955872	6.178145
286.192535	740.278015	1058.888062	754.989929	4.617530
286.563995	743.770264	1065.055176	758.482178	4.579086
286.935425	736.265686	1069.439087	761.082764	7.448697
287.306824	735.076843	1064.312134	758.333557	7.063858
287.678223	730.172852	1065.575317	765.541016	10.544992
288.049561	726.977844	1063.717773	765.169434	11.341568
288.420898	721.776672	1065.278198	762.123047	11.745617
288.792145	728.686829	1067.804321	751.423401	6.704630
289.163452	738.569031	1068.621704	764.129211	7.744273
289.534668	729.504150	1076.275024	775.646179	13.306201
289.905914	723.857117	1090.243774	777.726624	14.702911
290.277039	716.426941	1115.952515	769.924805	13.390347
290.648193	727.349365	1135.196899	768.958801	10.202204
291.019318	735.225403	1150.874756	764.277649	6.989604
291.390381	731.584534	1153.401001	761.082703	6.993129
291.761475	727.497864	1157.487671	757.367615	6.946619
292.132507	721.405090	1147.754028	766.729736	10.630880
292.503510	730.098572	1143.890503	775.646057	11.007340
292.874481	738.569031	1145.450806	784.488098	11.285604
293.245422	736.488586	1145.079224	782.110352	11.165642
293.616364	735.448303	1150.429077	778.692444	10.420757
293.987213	725.045898	1164.175049	773.045471	10.930628
294.358093	726.234802	1189.289429	769.924805	9.435172
294.728943	727.423645	1212.992065	767.547119	8.263197
295.099731	728.538147	1231.121826	761.305664	6.519813
295.470490	731.435974	1243.307495	765.392273	6.633754
295.841248	724.748779	1259.356812	765.689514	7.658084
296.211975	725.863281	1269.907837	765.020813	7.197486
296.582642	719.398926	1292.941650	766.135437	8.148741
296.953308	719.993347	1321.845337	756.550293	6.074076
297.323883	725.714661	1338.489380	759.150879	5.456527
297.694519	725.714661	1352.904053	752.017822	4.193815
298.065063	733.665039	1352.458130	763.014648	4.743041
298.435608	726.977844	1351.863647	760.934143	5.434000
298.806122	733.590759	1329.572876	766.432556	5.510534
299.176575	731.658875	1305.721802	763.088928	5.475019
299.547028	732.773376	1285.734253	763.906250	5.630213
299.917450	734.036621	1284.173950	761.305664	4.956770
300.287872	734.333801	1278.675537	761.602844	5.009545
300.658234	739.386414	1277.783813	760.339783	3.891804
301.028564	727.349304	1273.845825	769.330383	7.681857
301.398865	722.296814	1280.235840	767.770020	8.150210
301.769135	720.290588	1286.477295	772.005188	9.133842
302.139374	731.064453	1286.180054	759.373840	5.099728
302.509583	732.030457	1279.344238	762.420227	5.552532
302.879791	735.002502	1280.533081	767.472839	5.952065
303.249939	728.686829	1287.369019	771.336609	7.633997
303.620087	734.556702	1289.078003	777.726563	7.785068
303.990173	728.612488	1289.375122	774.680176	8.215185
304.360260	732.922058	1287.814819	779.212646	8.342258
304.730286	725.343079	1291.009766	777.503662	9.221081
305.100281	724.822998	1305.201538	775.200378	8.680090
305.470276	723.931335	1309.511108	774.234375	8.590297
305.840179	730.024231	1325.932007	771.262207	6.920194
306.210144	730.990234	1327.417969	777.503662	7.798669
306.579987	729.875671	1335.294067	778.989746	8.112418
306.949890	730.470032	1344.804810	767.918640	6.095798
307.319702	739.534973	1354.315796	759.819580	3.299486
307.689484	733.888000	1367.615845	762.197266	4.467102
308.059265	740.723816	1384.631226	766.952698	4.073393
308.429016	738.866211	1411.157227	766.506836	4.111408
308.798737	744.141785	1441.101196	757.590515	1.929629
309.168396	736.339905	1464.878296	766.358215	4.120347
309.538055	732.030457	1477.732544	769.256104	4.992027
309.907684	731.510315	1496.605469	776.017639	5.817227
310.277313	733.144958	1502.326660	775.497559	5.506189
310.646851	737.603088	1507.007813	774.011475	4.732020
311.016388	739.609314	1514.586548	765.169434	3.298177
311.385895	738.197510	1523.057129	761.305664	2.944240
311.755371	734.408142	1534.574097	760.934143	3.315063
312.124817	736.339905	1533.608032	766.061035	3.727871
312.494232	733.887939	1535.540039	768.884583	4.365565
312.863617	730.172852	1531.750610	766.506897	4.532816
313.232971	720.662109	1521.199585	767.324219	5.828847
313.602295	720.067688	1518.524780	759.150879	4.894839
313.971619	720.067688	1534.722656	757.293274	4.569491
314.340820	721.702332	1544.902222	759.968262	4.648437
314.710083	719.770508	1562.660522	770.296204	5.994340
315.079285	718.804504	1563.849487	780.252869	7.271609
315.448486	724.748779	1585.694336	775.348877	5.877270
315.817596	727.052063	1582.053589	768.141541	4.805779
316.186707	731.287415	1573.731812	763.757629	3.854286
316.555786	731.807556	1546.908203	768.810303	4.539654
316.924866	732.847717	1531.230469	769.479004	4.588186
317.293884	735.819824	1529.521484	775.274597	4.970983
317.662872	734.259460	1542.078735	771.559387	4.617360
318.031830	736.934387	1548.468750	773.194092	4.468043
318.400757	735.522644	1553.892700	758.110657	2.760122
318.769684	734.482422	1564.443726	755.955872	2.587283
319.138550	724.525818	1577.075195	757.516174	3.869612
319.507416	716.278259	1599.366089	768.735901	5.940252
319.876190	720.662109	1605.013062	769.850403	5.562078
320.244995	734.408142	1605.235962	774.011414	4.547773
320.613770	737.380188	1582.870972	774.903076	4.438001
320.982483	738.197510	1565.484009	787.237305	5.927789
321.351166	732.921936	1557.087891	777.949463	5.463405
321.719818	738.420410	1548.320190	775.720398	4.605506
322.088440	736.339905	1559.465454	764.649231	3.439248
322.457062	735.225403	1573.731567	774.085693	4.634467
322.825623	736.339905	1601.817993	776.240540	4.610242
323.194183	733.367859	1620.913940	782.704895	5.558814
323.562653	734.259521	1658.065308	787.237366	5.734738
323.931183	726.532043	1690.758423	785.751282	6.141632
324.299591	725.120300	1739.055176	779.732727	5.386187
324.668060	721.776611	1760.974609	770.147705	4.654656
325.036407	717.541321	1786.980469	772.228210	5.113605
