Jaz Data File
++++++++++++++++++++++++++++++++++++
Date: Fri Jun 04 16:23:40 2021
User: jaz
Dark Spectrum Present: Yes
Reference Spectrum Present: Yes
Processed Spectrum Present: Yes
Spectrometers: JAZA3586
Integration Time (usec): 69400 (JAZA3586)
Spectra Averaged: 10 (JAZA3586)
Boxcar Smoothing: 1 (JAZA3586)
Correct for Electrical Dark: No (JAZA3586)
Strobe/Lamp Enabled: Yes (JAZA3586)
Correct for Detector Non-linearity: No (JAZA3586)
Correct for Stray Light: No (JAZA3586)
Number of Pixels in Processed Spectrum: 2048
>>>>>Begin Processed Spectral Data<<<<<
W	D	R	S	P
191.335022	0.000000	0.000000	0.000000	0.000000
191.713211	293.792969	294.833221	288.740356	-485.710083
192.091385	587.957458	584.167969	586.471375	39.215939
192.469528	881.453125	885.093994	884.425293	81.633476
192.847641	891.186829	890.815247	889.923645	339.947449
193.225739	898.022644	906.567383	895.793640	-26.086273
193.603790	912.363098	906.567444	902.257996	174.356537
193.981842	916.672668	912.140137	919.198914	-55.735851
194.359863	932.350586	910.877014	927.446472	22.837904
194.737854	939.780823	918.158752	932.647705	32.989986
195.115829	942.901550	925.737610	924.920227	104.762207
195.493774	937.403137	934.802551	921.799561	600.002319
195.871704	935.842773	935.842773	921.873840	0.000000
196.249603	939.260681	936.139954	923.805725	495.235687
196.627457	937.403076	933.539368	923.954346	348.078278
197.005310	930.790222	937.328857	924.474426	-96.591957
197.383133	928.486816	933.836609	930.270081	33.333332
197.760910	936.957336	928.412415	929.749817	84.348572
198.138687	941.712708	922.096741	927.297913	73.485008
198.516449	933.687988	921.948181	922.022461	99.367279
198.894180	922.022400	928.783997	920.016296	-29.669081
199.271866	924.177246	933.316589	916.152527	-87.804115
199.649536	925.960449	932.796387	916.449768	-139.127686
200.027191	931.384583	941.638367	921.056458	-100.725006
200.404816	920.610657	941.712708	923.137024	11.972140
200.782410	918.976074	952.635254	925.960449	20.750282
201.159988	916.598328	958.653748	919.867676	7.773904
201.537537	922.468262	975.297546	920.833679	-3.094084
201.915070	919.570496	970.096252	921.650940	4.117592
202.292557	914.146423	967.049866	916.895569	5.196534
202.670029	918.307373	959.768250	916.523987	-4.301371
203.047485	921.502380	968.833191	911.842957	-20.408321
203.424911	929.304199	963.706238	918.901672	-30.238111
203.802292	923.137024	964.300598	921.205078	-4.693338
204.179688	919.644775	962.517395	918.455872	-2.773108
204.557037	910.579895	958.579407	912.511719	4.024674
204.934357	901.960754	958.059265	903.000916	1.854169
205.311661	903.818298	952.189270	899.731628	-8.448600
205.688934	904.041077	957.687744	903.075378	-1.800109
206.066177	904.635559	950.480286	906.939026	5.024497
206.443390	905.229980	951.817871	912.957520	16.587011
206.820587	912.288757	947.211121	912.585999	0.851149
207.197769	914.072083	946.691101	907.979248	-18.678780
207.574921	910.728455	943.273132	903.223816	-23.059496
207.952042	899.657227	943.495911	899.657288	0.000139
208.329147	903.892578	947.434021	906.790344	6.655191
208.706223	927.520813	970.690735	935.248352	17.900286
209.083267	932.350525	975.446106	938.294739	13.793094
209.460297	931.533203	977.972412	936.585754	10.879926
209.837280	908.870850	960.288391	907.161926	-3.323619
210.214264	904.041199	953.972656	910.877136	13.690642
210.591217	904.784180	957.687805	911.248596	12.219232
210.968124	906.493164	965.786804	911.545837	8.521442
211.345016	914.592102	971.656738	906.864746	-13.541409
211.721893	912.214539	967.867188	905.378662	-12.283111
212.098724	910.431213	956.870422	907.161926	-7.039928
212.475555	907.830750	965.341003	908.870911	1.808653
212.852356	911.471497	965.192383	908.870911	-4.840921
213.229126	910.579895	970.319275	913.997742	5.721262
213.605865	904.115540	957.910645	903.743958	-0.690736
213.982590	898.914307	955.830139	897.725525	-2.088666
214.359283	896.685242	957.019043	891.706970	-8.251215
214.735931	893.787415	962.666016	898.617126	7.011919
215.112579	901.812195	967.198547	905.229980	5.227063
215.489197	904.561340	963.037598	912.214539	13.087702
215.865799	914.740906	957.762024	910.505554	-9.844820
216.242355	905.304382	949.737366	910.431152	11.538208
216.618896	912.660339	940.523865	903.298157	-33.600136
216.995407	904.709961	942.604309	901.663391	-8.039641
217.371902	903.000977	942.752930	894.976257	-20.186981
217.748367	894.158936	945.279236	891.261169	-5.668523
218.124802	897.279602	941.787048	895.719299	-3.505712
218.501236	902.183655	947.359680	901.366394	-1.809059
218.877609	904.784363	952.337952	917.415710	26.562344
219.253983	894.158997	958.579407	912.437317	28.373493
219.630295	885.094055	948.325623	910.059753	39.482967
220.006592	882.419128	938.666260	895.570740	23.381834
220.382889	895.867920	938.517639	900.771912	11.498298
220.759140	907.607727	949.142883	907.236145	-0.894621
221.135391	918.678894	957.019043	909.836731	-23.062412
221.511581	920.387878	953.675476	912.214539	-24.553709
221.887772	917.564270	953.303894	909.391052	-22.868786
222.263931	914.517883	965.192383	915.558105	2.052753
222.640060	916.598389	967.792969	909.168030	-14.513956
223.016159	911.694336	970.467834	910.877014	-1.390630
223.392212	910.877136	960.437012	903.966980	-13.943046
223.768265	904.338379	954.567078	903.372498	-1.922967
224.144302	910.951355	953.006653	894.679016	-38.692722
224.520294	904.932800	948.994385	890.369446	-33.052273
224.896286	907.161926	952.783752	893.415955	-30.130253
225.272217	901.812073	957.019043	897.874084	-7.133136
225.648148	900.846191	964.820801	908.796570	12.427397
226.024048	893.564636	964.152161	910.282654	23.684097
226.399902	897.205383	953.675476	907.979309	19.078995
226.775772	900.474609	955.087219	899.657410	-1.496357
227.151581	901.737793	961.031311	898.988586	-4.636606
227.527374	896.016602	968.387390	906.195984	14.065596
227.903137	900.549072	966.678406	914.369324	20.898821
228.278870	899.657410	965.117981	915.186584	23.722944
228.654572	907.830566	959.471008	909.985352	4.172670
229.030273	900.697571	955.607361	903.000916	4.194780
229.405930	904.784180	953.006775	900.771790	-8.320560
229.781555	904.709961	957.910706	902.332214	-4.469386
230.157181	907.830627	960.362793	910.133972	4.384637
230.532761	909.613953	962.145996	908.202148	-2.687510
230.908325	900.326111	962.145996	899.731628	-0.961636
231.283859	901.217712	961.848816	890.518127	-17.647024
231.659332	899.880188	961.254395	888.660583	-18.280651
232.034821	907.013245	962.443176	896.908203	-18.230297
232.410263	909.613831	956.499023	897.205322	-26.465729
232.785690	913.254700	956.053162	899.731628	-31.597097
233.161087	917.861511	959.694031	901.737793	-38.543503
233.536469	914.220703	965.786804	899.360107	-28.818537
233.911804	910.802795	969.427673	901.960693	-15.082508
234.287140	908.202209	961.105713	894.084656	-26.685480
234.662430	914.072083	963.334778	898.765686	-31.070969
235.037704	919.793457	965.192383	892.375671	-60.393028
235.412933	911.991638	968.387390	890.889648	-37.417694
235.788162	904.635681	957.316223	887.843201	-31.876059
236.163345	904.338379	953.155334	894.456116	-20.243505
236.538513	912.734619	947.879822	904.041199	-24.735723
236.913635	914.369324	957.167664	910.134033	-9.895923
237.288742	915.781006	959.842590	912.511719	-7.419813
237.663834	916.672607	968.610291	916.747009	0.143252
238.038879	920.164856	971.359436	921.279480	2.177231
238.413910	916.969910	976.114807	914.146301	-4.774053
238.788910	907.161926	977.229309	911.694336	6.468644
239.163879	899.211487	982.133362	910.356995	13.440974
239.538834	894.827637	970.319275	916.449768	28.641756
239.913757	900.697571	968.610352	914.517883	20.350090
240.288651	899.360168	963.780579	906.344543	10.841866
240.663528	905.155762	969.056091	905.378662	0.348825
241.038361	902.034973	968.833191	897.874084	-6.229042
241.413177	910.059753	969.278992	901.440613	-14.554629
241.787979	903.669739	968.164368	898.765686	-7.603816
242.162735	899.360168	973.216980	898.840027	-0.704257
242.537476	902.406555	972.251038	893.936035	-12.127687
242.912170	908.647949	984.659485	898.319824	-13.587576
243.286865	919.273254	976.932129	902.034973	-29.897013
243.661514	915.781006	980.201477	906.567444	-14.302227
244.036148	912.437317	977.526611	903.966858	-13.013597
244.410751	912.363098	987.557434	902.480774	-13.142379
244.785339	906.938965	982.876404	901.366394	-7.338371
245.159882	906.716125	977.972412	897.428406	-13.034246
245.534378	907.830750	978.418274	903.521179	-6.105286
245.908890	916.449768	987.483215	897.799805	-26.255186
246.283356	919.199036	994.616211	898.394226	-27.586302
246.657791	914.072083	992.981506	892.821472	-26.930384
247.032196	904.709961	999.000183	897.279602	-7.880307
247.406586	901.960754	998.480042	903.446777	1.539612
247.780960	907.979248	1004.795715	901.737854	-6.446624
248.155289	907.310547	996.919617	897.874084	-10.530700
248.529602	908.053528	998.479980	896.908203	-12.325293
248.903870	897.725403	995.730774	900.103210	2.426201
249.278122	903.075256	986.591553	902.480957	-0.711597
249.652344	907.533447	987.706055	898.765808	-10.935953
250.026550	913.180481	984.585388	890.072327	-32.362137
250.400711	913.106140	991.867004	895.422119	-22.452803
250.774857	912.734619	988.820557	893.341614	-25.488291
251.148987	911.025635	992.758606	898.171204	-15.727351
251.523071	910.059753	999.074402	895.867920	-15.943256
251.897125	906.938965	1004.572754	904.412781	-2.587408
252.271164	906.047424	1003.458252	909.465332	3.508755
252.645187	904.338379	1006.058838	908.796570	4.382787
253.019165	888.809082	997.439758	914.220642	23.392618
253.393112	892.152771	1005.018616	921.502258	26.003870
253.767044	890.443787	994.170410	918.530273	27.077414
254.140930	900.251770	996.770996	912.957520	13.163957
254.514801	895.124817	983.619385	911.620117	18.639902
254.888657	897.056702	988.894836	921.130859	26.213684
255.262466	904.189758	989.935059	917.861511	15.944609
255.636276	907.979248	996.919617	915.186584	8.103560
256.010010	915.038025	999.222961	906.790466	-9.796953
256.383759	919.347595	996.325134	904.858582	-18.822392
256.757446	929.006897	995.284851	897.799805	-47.085178
257.131134	931.013123	997.811218	900.326111	-45.939949
257.504791	924.994568	1011.111389	898.468445	-30.802488
257.878418	912.437500	1021.885254	903.000916	-8.621999
258.252014	907.533386	1027.978149	904.338379	-2.652674
258.625580	915.781067	1026.714966	908.499329	-6.564034
258.999115	919.198914	1020.622131	913.329102	-5.787444
259.372650	909.985352	1024.337280	908.945129	-0.909667
259.746124	899.657410	1035.334106	906.195984	4.819232
260.119598	897.428284	1050.640503	897.502625	0.048521
260.493042	900.697571	1066.764160	907.904968	4.340065
260.866425	906.344666	1075.829102	915.483887	5.392366
261.239838	903.818359	1076.720703	918.678894	8.594756
261.613159	904.264160	1072.262573	913.254700	5.351562
261.986511	900.028809	1051.532104	906.567566	4.315917
262.359802	900.846191	1043.061646	902.257996	0.992722
262.733063	900.251709	1032.139038	903.818298	2.704270
263.106293	898.171326	1034.368164	906.938965	6.437476
263.479523	899.360168	1038.454712	911.620056	8.814068
263.852692	898.542786	1041.278320	911.545715	9.109805
264.225861	897.056824	1049.600220	912.288757	9.985312
264.598969	900.400391	1045.439331	914.294922	9.579863
264.972076	906.270264	1040.981079	904.041199	-1.654704
265.345154	916.672668	1039.718018	896.016541	-16.787411
265.718201	919.496155	1050.789063	890.072327	-22.410828
266.091217	919.496155	1056.064575	900.771912	-13.710522
266.464203	917.564270	1062.751831	901.366394	-11.156518
266.837158	918.307312	1057.699219	898.022705	-14.552213
267.210114	916.449768	1061.711548	892.524231	-16.470634
267.583038	910.579834	1063.271973	894.233215	-10.705606
267.955902	905.155762	1068.621704	900.623291	-2.772731
268.328766	903.223877	1076.126343	903.892639	0.386786
268.701569	899.583008	1080.361694	896.239441	-1.849536
269.074371	896.239441	1088.906372	904.264160	4.165073
269.447144	896.685242	1089.649414	902.926697	3.234515
269.819885	906.344543	1091.358276	919.347656	7.028188
270.192596	910.208252	1093.438843	911.025696	0.446128
270.565277	910.579834	1099.977417	918.604675	4.237035
270.937927	903.223816	1103.246704	910.951355	3.863328
271.310577	904.041199	1111.197144	908.870850	2.331408
271.683136	907.607666	1121.673828	903.669678	-1.839613
272.055725	912.065857	1136.162964	906.716064	-2.387265
272.428284	907.087585	1147.085449	907.384766	0.123826
272.800812	910.951355	1152.360962	900.474670	-4.339796
273.173279	905.973145	1143.741821	899.434387	-2.750050
273.545776	909.093811	1131.704712	900.549011	-3.838446
273.918152	901.291992	1120.782227	905.452942	1.895733
274.290558	898.765686	1120.633667	903.966980	2.344319
274.662964	899.583008	1129.772949	902.778076	1.388014
275.035278	900.920471	1138.169067	904.189880	1.378052
275.407593	900.771973	1137.351685	905.898743	2.167037
275.779907	901.440613	1135.419800	907.236267	2.476996
276.152161	905.675964	1131.035889	903.075256	-1.154024
276.524384	911.025696	1137.797485	904.412659	-2.916164
276.896606	912.660339	1140.398071	901.291992	-4.991859
277.268799	904.189758	1152.286499	898.245544	-2.395926
277.640930	899.805969	1162.911865	895.347717	-1.694471
278.013031	894.456116	1168.113159	899.434387	1.819164
278.385162	904.487061	1167.518677	903.892578	-0.226012
278.757233	911.917297	1164.992310	902.257996	-3.816774
279.129272	915.186584	1166.181152	903.075256	-4.825335
279.501282	911.991516	1176.880737	895.570740	-6.199111
279.873230	906.938965	1180.744507	896.908203	-3.663462
280.245178	909.762512	1184.682617	896.759521	-4.729734
280.617126	910.134033	1190.032349	899.211487	-3.902327
280.988983	909.316711	1208.830933	893.118652	-5.408110
281.360870	912.288818	1227.852417	891.335449	-6.639983
281.732697	910.208313	1237.288940	891.929932	-5.588341
282.104492	913.551941	1248.062866	899.508728	-4.198133
282.476288	906.790344	1253.189575	899.062927	-2.230783
282.848053	904.487000	1259.059570	907.979187	0.984901
283.219757	909.688232	1261.585938	905.527161	-1.182466
283.591461	911.620117	1264.409302	907.459167	-1.179444
283.963135	914.889404	1262.180298	904.264160	-3.059465
284.334747	911.025635	1262.106079	909.391052	-0.465586
284.706360	916.375488	1267.158691	911.545715	-1.376854
285.077942	918.827454	1277.189453	913.254700	-1.555063
285.449524	921.353821	1289.300903	909.985413	-3.089686
285.821014	913.849182	1300.520508	908.796631	-1.306679
286.192535	908.425049	1308.173706	899.137207	-2.323420
286.563995	904.338379	1315.381104	903.298157	-0.253069
286.935425	911.620117	1322.439819	905.452942	-1.501188
287.306824	915.038025	1333.882446	912.140198	-0.691862
287.678223	913.180420	1323.851563	911.917297	-0.307575
288.049561	909.168152	1322.885620	906.790466	-0.574712
288.420898	908.276428	1316.867188	905.081482	-0.781943
288.792145	909.762512	1326.377808	898.022705	-2.817901
289.163452	906.790344	1326.674927	896.462341	-2.459724
289.534668	903.000977	1333.956665	903.595398	0.137931
289.905914	902.183655	1341.758423	905.824524	0.828271
290.277039	905.007141	1353.647095	911.025696	1.341511
290.648193	912.660339	1375.566406	908.796692	-0.834650
291.019318	918.307312	1398.525879	908.945251	-1.949542
291.390381	920.759277	1406.847656	903.223877	-3.607451
291.761475	922.914124	1413.163452	897.428223	-5.198559
292.132507	922.171082	1399.491821	897.725525	-5.121411
292.503510	919.124695	1396.222290	900.103210	-3.986917
292.874481	919.347595	1386.637329	909.391052	-2.130700
293.245422	913.626282	1393.993286	911.397217	-0.464034
293.616364	909.614014	1401.572266	914.815125	1.057226
293.987213	902.926758	1414.649414	910.728516	1.524607
294.358093	900.771912	1434.934082	910.431213	1.808309
294.728943	901.440613	1463.614868	909.390930	1.414209
295.099731	899.285828	1490.215454	905.452942	1.043629
295.470490	899.508728	1506.859253	900.474609	0.159032
295.841248	901.143372	1520.530884	892.078430	-1.463533
296.211975	901.514893	1532.642212	890.443848	-1.754170
296.582642	902.109375	1546.611206	894.530457	-1.175934
296.953308	907.979248	1574.920410	900.846191	-1.069518
297.323883	912.363098	1587.997681	911.174255	-0.175959
297.694519	914.369324	1606.424805	910.654114	-0.536837
298.065063	912.734680	1599.514648	911.991638	-0.108192
298.435608	909.391052	1590.375488	900.994812	-1.232956
298.806122	912.363220	1570.908203	900.920471	-1.737580
299.176575	914.443604	1551.515137	893.861755	-3.230697
299.547028	909.019531	1545.199341	899.137207	-1.553385
299.917450	904.709961	1535.837280	896.908142	-1.236172
300.287872	897.651184	1527.441040	902.778076	0.814064
300.658234	901.291992	1515.849731	899.434387	-0.302267
301.028564	907.459167	1514.809570	901.366272	-1.003193
301.398865	908.796570	1514.809570	908.647949	-0.024524
301.769135	915.335266	1519.193359	914.443542	-0.147671
302.139374	915.112366	1518.673340	913.329102	-0.295457
302.509583	912.883301	1517.632935	906.195984	-1.105799
302.879791	908.796570	1510.797241	905.081482	-0.617124
303.249939	908.276367	1508.791016	905.230042	-0.507286
303.620087	911.471375	1501.360840	908.647949	-0.478636
303.990173	912.288757	1502.029663	912.140137	-0.025201
304.360260	912.437439	1502.178223	912.660339	0.037796
304.730286	906.864746	1509.756958	910.579834	0.616211
305.100281	909.688232	1513.843750	908.350769	-0.221377
305.470276	912.065918	1514.438110	911.545715	-0.086359
305.840179	918.827393	1525.880859	912.363098	-1.064864
306.210144	912.065918	1524.469116	911.099915	-0.157740
306.579987	905.304260	1533.979614	907.904968	0.413681
306.949890	897.651184	1540.295410	903.372498	0.890277
307.319702	904.338379	1560.282837	899.434387	-0.747623
307.689484	906.716125	1572.171387	897.353943	-1.406884
308.059265	912.883301	1581.830688	902.778076	-1.510616
308.429016	907.310547	1601.669556	904.784241	-0.363833
308.798737	909.242432	1626.338013	909.391052	0.020725
309.168396	908.499329	1652.938354	902.109375	-0.858358
309.538055	911.099915	1673.074341	901.291992	-1.287172
309.907684	906.938965	1683.996948	900.103210	-0.879697
310.277313	905.155762	1692.318726	908.499451	0.424777
310.646851	904.115417	1699.674683	916.152649	1.513053
311.016388	906.938965	1717.432983	920.982239	1.732681
311.385895	913.923523	1729.024292	921.650940	0.948032
311.755371	911.545837	1736.826050	913.329041	0.216072
312.124817	904.487061	1736.826050	906.716125	0.267807
312.494232	900.251770	1735.117188	897.874023	-0.284806
312.863617	901.960754	1725.234863	902.480774	0.063165
313.232971	913.477600	1723.451660	902.852356	-1.311801
313.602295	916.449707	1721.742798	908.053528	-1.042624
313.971619	918.530273	1723.897461	895.867859	-2.813923
314.340820	909.391052	1714.535278	896.833801	-1.559628
314.710083	905.304382	1725.829224	895.422058	-1.204391
315.079285	906.716125	1741.358765	905.007141	-0.204756
315.448486	909.613953	1760.157227	904.709961	-0.576572
315.817596	908.573669	1764.764038	903.223877	-0.624837
316.186707	907.533386	1754.138672	896.165100	-1.342808
316.555786	903.818298	1737.643555	898.691406	-0.614864
316.924866	900.920471	1716.913086	902.852356	0.236753
317.293884	893.267395	1705.916138	905.452942	1.499485
317.662872	896.165222	1710.300171	904.338379	1.003907
318.031830	900.846191	1710.597168	897.131042	-0.458801
318.400757	910.802734	1721.445435	907.459167	-0.412459
318.769684	912.660339	1727.166626	913.031799	0.045606
319.138550	909.019470	1740.541382	920.462097	1.376107
319.507416	909.539551	1747.228516	917.638611	0.966834
319.876190	907.087585	1741.953125	906.121643	-0.115700
320.244995	909.465271	1742.324585	909.316711	-0.017837
320.613770	901.143372	1735.934570	895.793640	-0.640847
320.982483	904.264099	1738.237793	905.007141	0.089097
321.351166	910.282654	1725.309082	900.994812	-1.139575
321.719818	906.567566	1720.628296	911.991516	0.666283
322.088440	904.189941	1733.259399	910.802734	0.797616
322.457062	901.886414	1757.928101	908.276428	0.746461
322.825623	908.053528	1785.345703	906.493225	-0.177854
323.194183	908.499329	1798.571777	898.468567	-1.126960
323.562653	904.412781	1826.138062	904.041199	-0.040314
323.931183	905.973145	1854.521606	905.972961	-0.000019
