Jaz Data File
++++++++++++++++++++++++++++++++++++
Date: Fri Jun 04 16:41:33 2021
User: jaz
Dark Spectrum Present: Yes
Reference Spectrum Present: Yes
Processed Spectrum Present: Yes
Spectrometers: JAZA3586
Integration Time (usec): 24400 (JAZA3586)
Spectra Averaged: 10 (JAZA3586)
Boxcar Smoothing: 1 (JAZA3586)
Correct for Electrical Dark: No (JAZA3586)
Strobe/Lamp Enabled: Yes (JAZA3586)
Correct for Detector Non-linearity: No (JAZA3586)
Correct for Stray Light: No (JAZA3586)
Number of Pixels in Processed Spectrum: 2048
>>>>>Begin Processed Spectral Data<<<<<
W	D	R	S	P
191.335022	0.000000	0.000000	0.000000	0.000000
191.713211	234.499390	230.487045	235.911133	-35.184994
192.091385	471.747955	472.490997	477.692169	799.983582
192.469528	709.665283	712.117249	718.655945	366.671631
192.847641	718.878906	723.559875	720.216309	28.571056
193.225739	727.126465	723.336975	724.748718	62.745823
193.603790	728.761047	731.584534	731.658875	102.632942
193.981842	720.587830	734.779602	742.135559	151.832550
194.359863	726.383362	741.689758	749.194397	149.029434
194.737854	739.237793	743.398682	751.572021	296.432556
195.115829	760.636902	748.971436	758.630798	17.196943
195.493774	758.259277	751.200500	757.070374	16.842915
195.871704	756.401672	756.847473	761.602844	1166.703125
196.249603	754.989929	757.219055	757.887695	129.995621
196.627457	752.909485	755.807312	751.720703	-41.023212
197.005310	756.847473	745.702148	754.544128	20.666466
197.383133	753.875427	743.695984	759.150879	-51.824558
197.760910	758.036377	750.754700	760.711243	-36.734200
198.138687	750.754700	751.794922	753.429626	257.149567
198.516449	748.302673	750.828918	744.438965	-152.942734
198.894180	752.983704	749.863098	743.101563	316.673828
199.271866	760.191162	750.531799	744.736145	160.000381
199.649536	759.596741	749.417236	744.141785	151.824249
200.027191	750.234619	743.547363	748.228333	30.001642
200.404816	738.643372	742.581360	740.872375	56.602604
200.782410	736.488586	750.531799	753.652527	122.222321
201.159988	741.169617	762.494568	753.726807	58.884964
201.537537	737.677429	777.429382	765.392334	69.719604
201.915070	738.866211	781.738953	760.191162	49.740116
202.292557	733.665039	778.618164	765.466614	70.743858
202.670029	742.209961	774.903076	760.711243	56.590759
203.047485	743.324463	772.599670	762.643066	65.989639
203.424911	736.191406	769.256104	762.643066	79.999702
203.802292	728.463867	765.615234	771.708008	116.399864
204.179688	718.432922	760.711243	764.500732	108.963196
204.557037	725.937500	768.587341	763.831970	88.850204
204.934357	733.590759	771.782410	759.596741	68.093369
205.311661	738.866272	775.720398	766.432617	74.798531
205.688934	733.665039	769.924805	761.825867	77.664116
206.066177	727.052063	773.416992	756.624573	63.782066
206.443390	723.485657	770.221985	757.887695	73.608772
206.820587	725.789001	765.392334	748.525574	57.410755
207.197769	721.256531	758.482178	746.668030	68.263420
207.574921	725.194580	762.345886	737.603088	33.399925
207.952042	722.222473	765.169434	743.398743	49.307961
208.329147	726.383362	765.838135	747.633972	53.860683
208.706223	732.327637	776.463379	762.717468	68.855377
209.083267	738.048889	783.522156	763.534729	56.045765
209.460297	737.677429	787.237305	761.602844	48.275776
209.837280	731.213074	773.491394	743.027161	27.943605
210.214264	723.114014	766.506836	742.284180	44.178196
210.591217	722.148132	763.163269	739.014832	41.123108
210.968124	719.918945	761.305664	740.872375	50.628391
211.345016	726.606262	768.290039	745.850769	46.167858
211.721893	729.132568	771.187927	744.810486	37.279240
212.098724	733.590759	773.417053	752.389404	47.201591
212.475555	738.717590	767.472839	758.705078	69.509003
212.852356	736.191345	760.859863	768.884521	132.529953
213.229126	734.482361	763.980530	766.729797	109.320129
213.605865	733.887939	763.906250	759.150879	84.158432
213.982590	737.603088	767.324219	750.234558	42.499966
214.359283	740.278015	762.940369	747.411133	31.475626
214.735931	731.436035	761.157043	751.869202	68.749908
215.112579	738.866211	756.996155	752.612305	75.819839
215.489197	730.024231	761.454346	752.017883	69.976364
215.865799	734.556702	765.838196	744.141785	30.641384
216.242355	732.699158	772.674072	737.008728	10.780686
216.618896	747.262451	774.977356	742.804382	-16.085457
216.995407	747.633972	778.172424	745.479187	-7.055974
217.371902	740.129395	773.491394	750.308838	30.512091
217.748367	725.417419	761.157043	745.701965	56.756462
218.124802	717.764221	758.036377	749.342957	78.413322
218.501236	719.027405	760.562683	752.092102	79.606300
218.877609	725.343201	771.782410	753.726868	61.120049
219.253983	732.253357	769.479004	748.822815	44.510868
219.630295	735.596924	766.729736	749.417236	44.391468
220.006592	733.293518	766.283997	743.027161	29.504400
220.382889	732.104675	764.352051	752.017822	61.751217
220.759140	724.971619	766.729797	753.058105	67.259850
221.135391	724.005676	766.804016	756.476013	75.868217
221.511581	723.634094	768.513000	754.098328	67.880959
221.887772	725.937561	770.816406	755.435791	65.728584
222.263931	727.646545	772.228210	755.584412	62.666718
222.640060	727.795166	778.395325	750.606018	45.080593
223.016159	729.281189	776.909241	741.615417	25.896982
223.392212	730.767273	778.692566	743.175781	25.891356
223.768265	733.665039	779.584167	742.061279	18.284842
224.144302	734.556824	776.983582	745.479248	25.744188
224.520294	735.745605	769.404724	739.386414	10.816707
224.896286	734.853943	759.893860	733.665039	-4.748034
225.272217	743.250061	763.014648	726.829285	-83.081810
225.648148	744.216064	760.859863	737.528809	-40.178661
226.024048	745.702148	766.729736	740.723816	-23.675243
226.399902	734.036560	765.392334	750.531738	52.606510
226.775772	729.132568	763.683350	742.729980	39.354862
227.151581	726.680603	758.630798	744.959167	57.209553
227.527374	734.333740	762.717468	744.736145	36.649185
227.903137	738.569031	770.816345	751.200500	39.170609
228.278870	743.695984	773.119812	750.680420	23.737347
228.654572	737.082947	774.085693	753.875488	45.381878
229.030273	736.637207	775.348877	754.692688	46.640926
229.405930	729.132629	775.423157	756.327393	58.748009
229.781555	729.578430	777.206482	747.559631	37.753384
230.157181	725.640381	776.686340	743.175781	34.352180
230.532761	727.795166	776.463562	741.169617	27.480772
230.908325	735.374023	771.187988	740.872375	15.352536
231.283859	740.278015	769.404724	743.844543	12.244872
231.659332	741.021057	776.017578	748.005554	19.957689
232.034821	731.361633	777.577942	752.835144	46.463058
232.410263	717.987122	777.949463	748.525574	50.929386
232.785690	713.528992	770.147766	751.349121	66.797859
233.161087	716.649719	770.296387	748.525574	59.418144
233.536469	722.593994	765.763855	746.667969	55.765697
233.911804	720.810730	768.141602	738.271790	36.891479
234.287140	720.141907	763.609070	739.237793	43.931751
234.662430	724.154297	770.370605	740.129395	34.565933
235.037704	727.497864	767.472839	745.033386	43.866249
235.412933	727.795166	770.519226	739.832214	28.173933
235.788162	722.222412	771.782410	742.655701	41.229397
236.163345	726.532043	773.045471	750.160217	50.798607
236.538513	732.253357	775.943359	758.333679	59.694027
236.913635	730.767273	777.726563	760.934143	64.240471
237.288742	730.024231	781.813232	753.355286	45.050213
237.663834	727.423645	790.135071	752.835205	40.521420
238.038879	732.476257	792.810059	748.079773	25.861980
238.413910	728.612488	794.890442	751.126221	33.968658
238.788910	725.714661	793.404480	749.788818	35.565403
239.163879	725.194519	788.351868	754.321228	46.117687
239.538834	723.708496	781.813232	750.308899	45.780094
239.913757	726.680603	776.983582	755.435730	57.163864
240.288651	728.389587	774.011414	748.748535	44.625454
240.663528	729.281250	775.200256	750.903320	47.087410
241.038361	726.234863	768.736023	752.315002	61.363358
241.413177	728.463867	777.577942	757.887756	59.909283
241.787979	729.801331	781.441711	755.733093	50.216057
242.162735	725.714661	789.615051	752.240723	41.511581
242.537476	726.531982	785.008240	749.194336	38.754795
242.912170	727.720886	793.553040	748.971436	32.279896
243.286865	731.658936	796.525146	752.686584	32.416954
243.661514	725.714661	806.927490	755.658691	36.871059
244.036148	725.789001	797.342468	756.624695	43.094620
244.410751	726.606262	796.153625	744.141785	25.213785
244.785339	726.011902	791.175476	740.426575	22.120752
245.159882	720.885010	795.856445	740.500977	26.164587
245.534378	719.621887	795.707825	748.674255	38.183624
245.908890	722.816895	797.788330	751.794922	38.652092
246.283356	721.033630	808.042053	757.144714	41.502975
246.657791	726.160461	812.425964	757.441895	36.261810
247.032196	726.680603	819.856262	754.321228	29.665070
247.406586	728.835388	828.252441	749.788757	21.076233
247.780960	725.640381	836.722961	741.021057	13.846164
248.155289	723.039795	834.791016	740.352356	15.492055
248.529602	731.658875	821.193665	741.169617	10.622398
248.903870	733.665039	815.249451	751.200500	21.493643
249.278122	736.934387	814.877930	754.915710	23.069677
249.652344	732.922058	817.552734	758.556458	30.289726
250.026550	735.745544	813.317566	758.407898	29.214598
250.400711	736.711426	805.738708	753.503906	24.327309
250.774857	736.934387	804.401184	743.770203	10.132118
251.148987	719.547546	800.537415	749.788757	37.339500
251.523071	713.008972	803.361023	754.915710	46.381611
251.897125	714.197754	804.772766	756.698914	46.923714
252.271164	728.984070	816.512512	749.417297	23.344671
252.645187	735.448303	829.887024	749.714539	15.106341
253.019165	732.996338	824.908875	751.869202	20.533503
253.393112	729.875671	822.754089	756.847473	29.039902
253.767044	727.572266	820.673523	749.863098	23.942568
254.140930	724.080017	825.057434	756.178772	31.788054
254.514801	730.470032	827.212219	753.429626	23.732763
254.888657	732.847717	817.998718	757.590576	29.057625
255.262466	735.522644	818.518799	755.584412	24.171925
255.636276	730.470032	811.831543	756.476013	31.963493
256.010010	729.429871	818.295898	755.510071	29.347773
256.383759	731.881836	818.890320	750.234558	21.093025
256.757446	730.024231	831.075989	753.132324	22.867582
257.131134	731.213074	834.419617	753.949707	22.030224
257.504791	726.829285	839.695068	753.132324	23.304707
257.878418	726.457703	843.038757	745.925049	16.698551
258.252014	718.061462	845.862122	750.680420	25.523310
258.625580	726.680664	856.115906	754.989990	21.871420
258.999115	732.699219	861.242859	755.732971	17.919014
259.372650	727.943787	875.583252	747.188171	13.034716
259.746124	723.039795	894.307556	741.243958	10.629066
260.119598	719.547546	918.084412	739.906433	10.254461
260.493042	727.572266	938.889160	742.135559	6.891685
260.866425	732.996399	945.502136	746.965271	6.573410
261.239838	730.395691	941.935547	743.324402	6.111714
261.613159	735.596924	924.994629	754.172668	9.807798
261.986511	724.674500	906.195984	756.178772	17.355671
262.359802	728.538269	900.177490	765.838196	21.731586
262.733063	729.132629	894.976257	759.671082	18.414003
263.106293	738.049011	898.394226	756.476074	11.492119
263.479523	733.813660	890.072266	754.841309	13.456954
263.852692	727.349304	887.025879	757.070496	18.613369
264.225861	725.343201	886.951660	762.791748	23.172394
264.598969	719.101746	889.552246	762.197327	25.283340
264.972076	714.049133	889.403625	750.531738	20.805059
265.345154	717.095520	888.660461	745.256348	16.414093
265.718201	725.640381	892.747131	743.250183	10.538055
266.091217	737.603210	907.459167	750.457520	7.567770
266.464203	730.024231	918.901672	738.866211	4.681332
266.837158	727.349304	937.923279	738.569031	5.328164
267.210114	719.696106	945.725098	737.008728	7.659470
267.583038	723.634277	954.269836	751.200500	11.952287
267.955902	725.045959	952.635193	754.767090	13.059111
268.328766	730.618652	946.542419	760.265442	13.730211
268.701569	730.098572	950.034668	755.138611	11.385143
269.074371	729.578430	953.526855	753.726807	10.783008
269.447144	723.262695	974.331543	754.767090	12.548110
269.819885	728.538269	980.721619	761.677246	13.140827
270.192596	727.943848	993.501648	763.237549	13.290402
270.565277	738.271790	993.724609	764.129150	10.122167
270.937927	733.590820	1008.362244	757.293274	8.626245
271.310577	731.510254	1033.476563	751.572021	6.643711
271.683136	723.857117	1066.689819	745.404846	6.285203
272.055725	724.377197	1092.844360	742.952942	5.041357
272.428284	727.349365	1101.314941	746.890930	5.225498
272.800812	741.095276	1098.565796	749.937317	2.473502
273.173279	749.268555	1089.500854	754.618469	1.572430
273.545776	752.240723	1071.519531	756.327393	1.279969
273.918152	745.999329	1069.141846	759.819641	4.276847
274.290558	734.779602	1064.757935	763.237549	8.624187
274.662964	735.448425	1064.015015	760.265442	7.553116
275.035278	731.956055	1059.705444	757.293274	7.730669
275.407593	731.584656	1058.145142	756.401672	7.599516
275.779907	728.686768	1068.844727	752.092102	6.880725
276.152161	731.584656	1076.274902	752.092102	5.949529
276.524384	739.832214	1099.085815	750.308899	2.916236
276.896606	730.990234	1109.339722	757.813477	7.089541
277.268799	735.076843	1120.039185	757.070374	5.713164
277.640930	724.525818	1125.017456	758.928040	8.589997
278.013031	730.618652	1133.339355	757.070496	6.568285
278.385162	724.154297	1138.911987	753.949707	7.183811
278.757233	727.126465	1140.992554	746.147949	4.596048
279.129272	729.281250	1146.119507	740.129456	2.602498
279.501282	732.253235	1151.617798	742.952942	2.551409
279.873230	734.408020	1158.230835	748.376953	3.295937
280.245178	737.751709	1179.258423	743.547363	1.312699
280.617126	732.476257	1204.595703	740.946777	1.794148
280.988983	727.869446	1222.874146	742.952942	3.047142
281.360870	725.789001	1242.861694	752.389343	5.144411
281.732697	726.754883	1269.313354	751.423401	4.546702
282.104492	730.990234	1301.486450	753.726868	3.985414
282.476288	726.680664	1324.817505	755.510071	4.819868
282.848053	729.058289	1334.848511	752.612305	3.888147
283.219757	730.915833	1337.151733	748.154114	2.843494
283.591461	730.024231	1331.579102	751.274719	3.532593
283.963135	730.098633	1329.498535	763.014648	5.491495
284.334747	729.801331	1336.334351	759.076477	4.826637
284.706360	736.414307	1349.040161	753.132324	2.728912
285.077942	730.767273	1372.371094	745.553528	2.304577
285.449524	732.401855	1395.182251	757.441956	3.778039
285.821014	731.361633	1417.101563	761.974365	4.464190
286.192535	742.135559	1439.912476	762.048645	2.853790
286.563995	742.432800	1468.370483	757.664795	2.098251
286.935425	738.123230	1486.128784	758.110657	2.672096
287.306824	728.166687	1493.261719	762.568848	4.496456
287.678223	729.801270	1479.218750	754.469910	3.291709
288.049561	734.631042	1464.803833	744.884766	1.404287
288.420898	735.745544	1444.147827	742.507141	0.954485
288.792145	731.287354	1436.940308	744.884766	1.926926
289.163452	728.909668	1443.033203	748.154114	2.694834
289.534668	729.355469	1470.302246	743.993164	1.975539
289.905914	721.702332	1494.376343	751.349121	3.836908
290.277039	722.519714	1528.332642	757.441895	4.333783
290.648193	724.748718	1561.917603	763.980652	4.686263
291.019318	729.875671	1598.102905	762.940369	3.808300
291.390381	732.773438	1625.372070	753.281006	2.297513
291.761475	734.110840	1621.359741	753.503906	2.185753
292.132507	734.408020	1616.975952	750.085938	1.776398
292.503510	733.962219	1595.205078	764.352051	3.528602
292.874481	731.584656	1584.059570	764.426453	3.852524
293.245422	731.807556	1578.264160	772.971191	4.863053
293.616364	731.064453	1598.697266	763.757629	3.768089
293.987213	733.813660	1638.598022	769.181702	3.909002
294.358093	734.110840	1685.111450	758.630798	2.578333
294.728943	737.751770	1731.625000	765.095154	2.751194
295.099731	735.894226	1773.308716	762.420227	2.556934
295.470490	736.265686	1805.184692	765.838135	2.766575
295.841248	728.166687	1834.014038	762.271545	3.084047
296.211975	726.903564	1849.320313	763.237549	3.237121
296.582642	725.566101	1885.134277	763.088928	3.235931
296.953308	725.789001	1923.177368	762.048767	3.028238
297.323883	724.525818	1980.464844	756.253113	2.526181
297.694519	727.497864	2006.842163	751.126282	1.846916
298.065063	731.138855	2010.260132	744.141785	1.016552
298.435608	725.714661	1982.545288	744.661865	1.507538
298.806122	722.073792	1934.545776	744.587585	1.856851
299.176575	720.587830	1872.131348	751.200500	2.658403
299.547028	730.990173	1821.977173	755.658691	2.261119
299.917450	738.197571	1796.862915	760.116882	2.070467
300.287872	743.101501	1790.249878	760.339783	1.646212
300.658234	743.993164	1794.187866	752.315125	0.792421
301.028564	741.987000	1788.466431	751.720642	0.930132
301.398865	732.773438	1784.379883	752.909485	1.914789
301.769135	727.126465	1780.738892	767.101257	3.794070
302.139374	720.513489	1796.119751	766.358215	4.262222
302.509583	721.628113	1804.813110	766.878418	4.177523
302.879791	721.182190	1803.847046	751.349121	2.786359
303.249939	724.600098	1795.599487	750.531799	2.421262
303.620087	729.281250	1791.290039	754.246887	2.350794
303.990173	730.544434	1784.528320	764.797852	3.249900
304.360260	730.841553	1781.407837	766.655457	3.409009
304.730286	731.436035	1792.924683	763.163269	2.988938
305.100281	731.287354	1797.085571	756.104431	2.328497
305.470276	724.228699	1808.305298	756.773254	3.002053
305.840179	721.330811	1806.967773	751.200500	2.751352
306.210144	719.993408	1822.794312	754.246887	3.106044
306.579987	721.107910	1825.023438	756.773193	3.230798
306.949890	724.377197	1833.568237	756.773254	2.920692
307.319702	727.572266	1849.097534	752.983826	2.265804
307.689484	732.327637	1863.214966	748.079773	1.392901
308.059265	735.299805	1895.388062	752.686523	1.498741
308.429016	732.922058	1931.202026	757.887695	2.083456
308.798737	735.374023	1983.808228	759.968262	1.970007
309.168396	735.448425	2034.928589	768.736023	2.561609
309.538055	745.479187	2072.674316	763.980530	1.394018
309.907684	746.593750	2098.531738	762.197266	1.154159
310.277313	743.175781	2109.825928	756.921814	1.005819
310.646851	737.305908	2119.336426	756.698914	1.403226
311.016388	741.243958	2140.364014	753.281006	0.860330
311.385895	742.952881	2152.921387	749.417236	0.458475
311.755371	740.129395	2169.416748	755.510071	1.076108
312.124817	735.819824	2172.908691	762.791748	1.876845
312.494232	737.677429	2166.295654	757.070374	1.357462
312.863617	738.643372	2155.596436	752.983704	1.012054
313.232971	736.934326	2137.094971	746.519348	0.684566
313.602295	735.968445	2120.005127	752.463623	1.191817
313.971619	736.637146	2119.559326	751.869202	1.101440
314.340820	734.928223	2130.853271	757.739075	1.634103
314.710083	734.630920	2162.952148	767.770020	2.320143
315.079285	731.807434	2183.682617	770.742004	2.681675
315.448486	740.946716	2216.227295	772.153809	2.115333
315.817596	736.785828	2222.171631	757.293274	1.380614
316.186707	740.203674	2197.651611	754.024109	0.948263
316.555786	727.349365	2144.673828	747.782532	1.441672
316.924866	723.485657	2101.355225	751.126221	2.006036
317.293884	723.559875	2087.386230	753.652527	2.206487
317.662872	731.213074	2094.667969	756.996094	1.891007
318.031830	728.240967	2108.339600	756.773193	2.067405
318.400757	717.764221	2123.720459	762.866028	3.207910
318.769684	715.609436	2125.726318	767.101318	3.651604
319.138550	726.680603	2136.723145	770.742126	3.124837
319.507416	732.179016	2155.744873	760.934143	2.019937
319.876190	729.206848	2180.784668	752.686523	1.617528
320.244995	732.030457	2195.645264	750.531738	1.264081
320.613770	736.042786	2178.406982	755.064270	1.318771
320.982483	738.048889	2154.035889	756.921875	1.332850
321.351166	735.894104	2129.590088	754.841370	1.359498
321.719818	732.699036	2111.980469	754.469788	1.578413
322.088440	739.089172	2110.865967	759.373840	1.478715
322.457062	736.934326	2133.974121	757.144714	1.446658
322.825623	745.776367	2173.726318	753.875488	0.567185
323.194183	742.878662	2219.570801	749.714417	0.462910
323.562653	741.169617	2257.390869	757.516296	1.078120
323.931183	725.120300	2316.015625	758.110657	2.073698
324.299591	722.742493	2378.950195	759.522400	2.220730
324.668060	721.405090	2428.733154	751.646301	1.771259
325.036407	732.179016	2472.051514	758.482178	1.511787
