Jaz Data File
++++++++++++++++++++++++++++++++++++
Date: Fri Jun 04 14:54:46 2021
User: jaz
Dark Spectrum Present: Yes
Reference Spectrum Present: Yes
Processed Spectrum Present: Yes
Spectrometers: JAZA3586
Integration Time (usec): 138000 (JAZA3586)
Spectra Averaged: 10 (JAZA3586)
Boxcar Smoothing: 1 (JAZA3586)
Correct for Electrical Dark: No (JAZA3586)
Strobe/Lamp Enabled: Yes (JAZA3586)
Correct for Detector Non-linearity: No (JAZA3586)
Correct for Stray Light: No (JAZA3586)
Number of Pixels in Processed Spectrum: 2048
>>>>>Begin Processed Spectral Data<<<<<
W	D	R	S	P
191.335022	0.000000	0.000000	0.000000	0.000000
191.713211	291.266663	290.003540	287.180054	323.532257
192.091385	583.202087	588.403259	579.709900	-67.142319
192.469528	880.412903	884.796875	880.412903	0.000000
192.847641	890.889648	889.106384	890.963867	-4.161961
193.225739	901.886475	892.004150	900.177429	17.293962
193.603790	917.267090	903.149597	901.812195	109.473373
193.981842	927.595215	919.124695	916.449768	131.579254
194.359863	942.975830	928.115234	925.514709	117.499466
194.737854	944.461914	937.625977	934.653992	143.475891
195.115829	942.901550	937.328796	929.452820	241.330063
195.493774	940.598145	937.848938	933.687988	251.350937
195.871704	941.489746	940.598145	932.424805	1016.703186
196.249603	942.158447	941.564026	940.449463	287.503845
196.627457	938.443359	944.907715	934.208069	-65.517601
197.005310	929.304138	944.313293	934.579590	35.148224
197.383133	935.917053	952.412354	929.601318	-38.288086
197.760910	939.409241	955.310059	938.220459	-7.476230
198.138687	946.988220	953.749695	936.882996	-149.452972
198.516449	940.003723	943.347351	935.025391	-148.890152
198.894180	931.681824	932.499207	920.462097	-1372.640381
199.271866	929.601318	921.279480	922.691223	83.035683
199.649536	929.304138	920.313538	921.205139	90.082962
200.027191	931.087402	921.353760	937.328796	-64.121872
200.404816	932.350586	929.378479	937.700256	-179.995895
200.782410	934.133850	941.564148	944.684753	141.998383
201.159988	935.917053	955.533020	936.585754	3.408964
201.537537	929.972839	965.192383	931.458923	4.219487
201.915070	923.211365	965.861084	930.492981	17.073069
202.292557	916.003906	964.820801	930.418701	29.528292
202.670029	920.907898	957.762146	942.678711	59.072739
203.047485	923.805725	955.087219	937.180237	42.755348
203.424911	924.920227	958.505066	937.031555	36.061890
203.802292	917.341370	966.604187	927.520813	20.663544
204.179688	918.307373	962.740417	935.694153	39.130291
204.557037	923.285645	961.551514	939.632263	42.718536
204.934357	921.799561	959.248108	948.325684	70.833519
205.311661	923.880066	972.845459	931.384583	15.326164
205.688934	921.948181	965.117981	929.229919	16.867668
206.066177	919.421875	964.523621	918.381653	-2.306390
206.443390	912.734680	961.031311	930.047119	35.846058
206.820587	901.886414	966.158203	924.994629	35.953899
207.197769	901.812195	970.616455	927.149414	36.825073
207.574921	906.567566	967.347107	930.715820	39.730892
207.952042	912.437317	968.610291	928.858337	29.232956
208.329147	917.118469	967.049866	925.143250	16.071611
208.706223	956.498840	1006.653259	964.077820	15.111290
209.083267	966.826965	1006.355957	972.622559	14.661627
209.460297	968.313049	1004.498474	974.554443	17.248365
209.837280	922.022522	965.712402	927.520813	12.584816
210.214264	918.307312	962.814636	924.474426	13.856403
210.591217	914.220642	966.455566	929.006836	28.307102
210.968124	922.245361	970.690735	932.276184	20.705429
211.345016	918.084290	974.034363	933.390808	27.357460
211.721893	918.678772	973.514221	927.966614	16.937660
212.098724	908.499329	970.244934	934.505371	42.118046
212.475555	910.951355	970.764954	933.910950	38.385242
212.852356	913.403381	961.700134	937.403137	49.692276
213.229126	920.536438	954.938477	937.774597	50.107960
213.605865	920.536438	950.183167	936.585754	54.135201
213.982590	916.821289	951.446350	931.087402	41.201698
214.359283	914.443604	957.762024	918.604675	9.605779
214.735931	913.923523	960.214050	915.186707	2.728817
215.112579	916.598328	963.334717	918.010071	3.020651
215.489197	911.619934	963.334778	924.400085	24.712732
215.865799	908.647949	964.003479	927.075012	33.288567
216.242355	908.425049	963.483398	926.034851	31.983891
216.618896	907.533447	961.031433	927.075134	36.527893
216.995407	907.756348	962.888977	926.034851	33.153694
217.371902	907.979248	962.443115	924.474426	30.286461
217.748367	911.620056	973.514221	921.502380	15.966488
218.124802	902.852295	981.539001	921.725281	23.984974
218.501236	903.223877	984.288147	922.245361	23.464695
218.877609	902.480896	975.074524	920.610657	24.974314
219.253983	910.579834	970.690735	923.805664	22.002382
219.630295	911.099854	975.520325	927.223633	25.028969
220.006592	907.236145	981.613281	926.257629	25.574371
220.382889	897.948303	985.848450	919.496155	24.514011
220.759140	895.050598	989.266418	916.821289	23.107256
221.135391	899.805908	990.158020	922.319641	24.917772
221.511581	903.743958	989.935120	924.400208	23.965624
221.887772	907.533386	994.616211	937.551758	34.471058
222.263931	914.443542	1013.414856	951.149109	37.087074
222.640060	922.765442	1020.102051	965.861023	44.274792
223.016159	920.164856	1024.857422	963.186218	41.093044
223.392212	923.434265	1020.845032	951.892151	29.214312
223.768265	919.273254	1023.445618	942.901550	22.681923
224.144302	916.449768	1022.702637	939.334961	21.538424
224.520294	902.555176	1032.584839	942.455750	30.685747
224.896286	905.601563	1048.039917	952.635254	33.020386
225.272217	908.499451	1058.888062	961.997314	35.573082
225.648148	918.158691	1062.306030	964.152161	31.907263
226.024048	911.174316	1065.649658	962.740417	33.381443
226.399902	909.688171	1089.129272	961.105652	28.654238
226.775772	906.047363	1105.475952	968.684570	31.408339
227.151581	906.418884	1133.562378	971.805237	28.786364
227.527374	906.047363	1150.206177	984.362488	32.075485
227.903137	906.716125	1181.859009	992.981628	31.352983
228.278870	909.168152	1231.195923	1008.956726	30.987568
228.654572	904.115479	1311.071533	1021.959656	28.957470
229.030273	894.307556	1406.699219	1047.519775	29.901388
229.405930	892.747131	1498.091431	1077.092163	30.452923
229.781555	903.743896	1561.397339	1096.039429	29.239645
230.157181	908.870850	1578.264038	1099.680298	28.504839
230.532761	914.963623	1545.496460	1084.745361	26.926708
230.908325	911.099915	1484.716919	1070.330688	27.759075
231.283859	919.347473	1439.095093	1055.098633	26.118670
231.659332	913.254639	1408.556641	1038.380493	25.262537
232.034821	918.084412	1396.593872	1036.448730	24.736046
232.410263	915.186584	1369.176270	1033.179321	25.990181
232.785690	911.471497	1345.027832	1038.008911	29.185923
233.161087	903.446777	1312.557495	1032.139160	31.456615
233.536469	904.487061	1300.891968	1025.303223	30.477968
233.911804	912.214539	1306.167603	1022.108215	27.895119
234.287140	915.558105	1326.600830	1018.393066	25.018070
234.662430	910.059753	1350.674927	1032.287720	27.740299
235.037704	917.564392	1361.374390	1031.396118	25.648752
235.412933	915.632507	1367.169922	1040.238037	27.595837
235.788162	912.808899	1367.764526	1031.321655	26.049299
236.163345	905.230164	1370.365112	1039.940796	28.961624
236.538513	902.852356	1381.807617	1039.717896	28.575851
236.913635	906.047363	1385.448364	1037.563110	27.433348
237.288742	912.511719	1400.829102	1035.482788	25.182611
237.663834	915.038025	1395.033691	1037.488892	25.510828
238.038879	912.065918	1398.228516	1042.987305	26.929546
238.413910	904.932861	1387.826172	1046.033691	29.219877
238.788910	898.468567	1398.823242	1042.764282	28.838686
239.163879	891.929932	1415.838501	1051.086304	30.378654
239.538834	887.991882	1443.850586	1059.854126	30.918333
239.913757	902.629456	1477.658203	1073.599976	29.732517
240.288651	907.236145	1518.450317	1086.974487	29.406769
240.663528	911.842957	1580.195923	1105.847290	29.027227
241.038361	905.081482	1651.452271	1125.537598	29.537077
241.413177	908.945129	1750.349243	1154.515625	29.185797
241.787979	908.870850	1853.184204	1178.069580	28.507351
242.162735	910.802734	1980.539063	1212.991821	28.248932
242.537476	913.031799	2100.760986	1233.722290	27.000303
242.912170	913.031799	2234.580322	1262.328857	26.430891
243.286865	916.078186	2302.195557	1283.133667	26.480835
243.661514	913.329041	2309.848877	1291.752808	27.097630
244.036148	907.459167	2226.852783	1275.406250	27.887590
244.410751	906.270264	2145.342529	1249.251587	27.680494
244.785339	905.229980	2046.519897	1218.044434	27.408852
245.159882	908.870911	2004.464355	1212.843262	27.744993
245.534378	906.716125	2011.374634	1219.010376	28.270662
245.908890	903.372498	2116.884521	1264.483643	29.757526
246.283356	906.344543	2283.471191	1309.808350	29.297508
246.657791	907.756348	2500.137939	1365.609741	28.752743
247.032196	922.394043	2763.541016	1425.571899	27.329586
247.406586	923.434265	3024.789795	1483.156616	26.636253
247.780960	920.090637	3206.682617	1540.518188	27.133286
248.155289	912.288818	3247.400391	1550.326294	27.323639
248.529602	911.174316	3139.661377	1529.372925	27.740732
248.903870	908.127930	2940.753174	1474.537476	27.865911
249.278122	904.264099	2705.733643	1414.426392	28.319231
249.652344	899.731628	2504.075928	1360.185669	28.700451
250.026550	902.926575	2352.275635	1315.232544	28.447664
250.400711	906.790344	2250.258057	1283.431030	28.034962
250.774857	906.121765	2172.314453	1264.335083	28.290586
251.148987	903.149597	2138.135010	1249.994629	28.084951
251.523071	900.549011	2143.930664	1252.149414	28.277756
251.897125	904.115540	2196.091064	1269.759277	28.301134
252.271164	910.356934	2263.186523	1286.848755	27.829952
252.645187	922.765564	2312.895264	1309.659790	27.831522
253.019165	929.824219	2334.888672	1309.882690	27.049185
253.393112	929.378418	2316.535889	1305.944702	27.146614
253.767044	918.976074	2260.511719	1280.533203	26.950989
254.140930	920.164856	2173.651611	1256.459106	26.828703
254.514801	921.725281	2086.643311	1232.905151	26.712599
254.888657	920.684998	2017.839233	1229.412842	28.138964
255.262466	912.585938	1986.780396	1228.001099	29.362947
255.636276	922.171082	1994.285034	1238.552124	29.510019
256.010010	922.022400	2020.662476	1238.849243	28.838091
256.383759	922.914063	2071.931396	1245.016235	28.032839
256.757446	904.561340	2120.822510	1256.161865	28.908306
257.131134	908.276550	2198.989014	1271.691162	28.156126
257.504791	912.065918	2287.186279	1304.978760	28.572979
257.878418	919.273254	2408.968506	1338.786499	28.161011
258.252014	920.684998	2560.100342	1393.473145	28.838827
258.625580	925.143127	2757.968506	1457.001953	29.018520
258.999115	921.353699	2991.799072	1518.747559	28.853399
259.372650	919.644775	3289.307373	1594.684937	28.486763
259.746124	909.316711	3606.430908	1676.046387	28.427778
260.119598	909.762512	3924.594971	1753.098511	27.972897
260.493042	906.716064	4129.001953	1792.998901	27.504786
260.866425	909.390930	4170.686035	1791.587280	27.050491
261.239838	917.118469	4022.823486	1759.934204	27.137661
261.613159	913.106201	3749.538330	1687.340454	27.296061
261.986511	911.620117	3436.426514	1599.143066	27.230719
262.359802	903.595398	3174.806641	1526.251953	27.415176
262.733063	911.620117	2994.919922	1483.453735	27.448456
263.106293	911.768738	2894.016602	1459.825562	27.648251
263.479523	917.489990	2830.562256	1446.153931	27.634291
263.852692	918.827454	2794.970947	1434.934082	27.508909
264.225861	920.833679	2752.321289	1416.507202	27.063986
264.598969	917.490051	2727.207031	1406.253418	27.007723
264.972076	911.694397	2718.587891	1405.510254	27.329550
265.345154	910.059753	2747.417236	1423.120117	27.923819
265.718201	914.517883	2796.234375	1434.191040	27.616974
266.091217	918.753113	2883.391357	1463.243530	27.714539
266.464203	912.437500	2996.703125	1493.558960	27.881353
266.837158	907.607727	3112.169189	1521.942505	27.866529
267.210114	900.474670	3210.843750	1546.685425	27.970022
267.583038	906.418945	3274.595459	1551.886597	27.255894
267.955902	902.852356	3308.997314	1562.883423	27.431059
268.328766	909.019470	3307.214111	1553.001343	26.852777
268.701569	912.363098	3300.824219	1563.180664	27.248405
269.074371	916.524109	3292.725342	1565.261108	27.301434
269.447144	915.632385	3323.040771	1577.743774	27.503077
269.819885	912.734680	3373.120850	1585.025513	27.324606
270.192596	911.545837	3476.327393	1615.712769	27.455240
270.565277	916.895691	3616.611084	1657.916626	27.448114
270.937927	909.019531	3820.423096	1716.095703	27.721207
271.310577	903.669678	4052.247803	1765.358398	27.367552
271.683136	893.787415	4273.966797	1819.302124	27.380638
272.055725	897.725403	4425.767090	1849.989136	26.991283
272.428284	904.932800	4501.332520	1876.292358	27.009222
272.800812	907.236267	4432.231445	1860.168579	27.033579
273.173279	909.465332	4301.606934	1836.391724	27.325699
273.545776	910.654236	4151.070313	1800.355103	27.456377
273.918152	909.242432	4054.922607	1771.822754	27.421106
274.290558	909.242371	3982.477295	1749.234741	27.332514
274.662964	906.195984	3915.827881	1729.544434	27.357115
275.035278	905.007080	3885.364014	1715.426880	27.192038
275.407593	907.384766	3881.500000	1717.210327	27.229126
275.779907	904.115479	3928.756592	1730.807617	27.331909
276.152161	909.093750	4013.684570	1739.129517	26.735754
276.524384	908.499329	4117.708496	1753.915649	26.343447
276.896606	905.898743	4197.509277	1760.380005	25.959366
277.268799	903.743958	4226.933105	1783.785522	26.481838
277.640930	898.988586	4239.490234	1787.500488	26.598158
278.013031	901.663513	4238.524902	1784.602905	26.460176
278.385162	905.675842	4231.540039	1781.482056	26.333191
278.757233	912.511719	4210.363770	1785.197144	26.462236
279.129272	913.106140	4214.227539	1785.494507	26.427031
279.501282	914.146301	4222.697754	1792.553101	26.549587
279.873230	910.208313	4284.889160	1796.862671	26.273724
280.245178	917.267090	4385.123535	1844.044922	26.724804
280.617126	914.443542	4545.840332	1879.338867	26.570915
280.988983	910.579773	4718.223145	1933.505371	26.865059
281.360870	912.214539	4892.313965	1967.684570	26.518684
281.732697	923.285645	5068.336914	2012.860718	26.286167
282.104492	930.641602	5202.676270	2043.696289	26.054440
282.476288	925.143250	5301.275879	2065.244141	26.052702
282.848053	911.025696	5351.133301	2070.742432	26.119116
283.219757	910.059753	5349.721680	2073.714600	26.210436
283.591461	909.836914	5289.536621	2054.916016	26.145151
283.963135	911.620117	5220.732422	2047.188599	26.352724
284.334747	915.260925	5208.620605	2048.302979	26.390566
284.706360	916.449768	5279.951172	2080.327393	26.673021
285.077942	921.205139	5423.281738	2109.677246	26.398310
285.449524	911.025696	5586.673340	2146.159912	26.416327
285.821014	901.291992	5683.860840	2163.472412	26.391266
286.192535	899.731628	5805.717285	2186.431885	26.227148
286.563995	901.589172	5880.763184	2196.908447	26.014744
286.935425	909.465271	5946.372559	2194.753906	25.517416
287.306824	909.465271	5879.648438	2179.150391	25.546041
287.678223	916.226807	5741.742676	2151.509766	25.598984
288.049561	916.895569	5607.700684	2126.172363	25.779728
288.420898	912.511719	5480.048340	2095.559326	25.901218
288.792145	904.412781	5455.156738	2078.915771	25.809031
289.163452	908.202209	5483.764160	2089.615479	25.820070
289.534668	907.607727	5606.437988	2119.262207	25.786303
289.905914	910.356934	5751.922363	2160.054443	25.811848
290.277039	907.830566	5917.320313	2209.019775	25.974485
290.648193	915.929688	6094.309082	2260.140137	25.958130
291.019318	913.849121	6237.861816	2286.889160	25.789572
291.390381	911.545837	6273.155762	2276.189453	25.452124
291.761475	905.898743	6193.800781	2242.456055	25.275761
292.132507	906.790466	6076.847656	2200.029053	25.014008
292.503510	910.877136	5968.960938	2177.961182	25.050671
292.874481	923.508545	5918.286621	2171.199707	24.979910
293.245422	921.279480	5931.809082	2194.084961	25.402611
293.616364	913.626282	6057.083496	2235.471680	25.699553
293.987213	902.183594	6231.769531	2284.883057	25.943844
294.358093	906.047363	6451.705566	2349.749268	26.033012
294.728943	901.960754	6667.703613	2396.782959	25.925928
295.099731	897.576843	6882.289551	2449.017822	25.923397
295.470490	900.251770	7033.421387	2471.010986	25.610889
295.841248	905.898743	7162.856934	2504.150391	25.543591
296.211975	905.973083	7264.800293	2536.174805	25.636829
296.582642	911.768738	7425.145996	2580.830811	25.625139
296.953308	915.706726	7585.267578	2616.941895	25.507452
297.323883	915.855286	7717.897949	2635.368896	25.279373
297.694519	912.288757	7727.631348	2624.520752	25.123196
298.065063	906.641785	7624.425293	2600.669434	25.217060
298.435608	901.812195	7408.056152	2550.738037	25.343742
298.806122	900.994812	7093.755371	2486.466309	25.602013
299.176575	899.954590	6753.522949	2394.553955	25.533133
299.547028	894.901917	6503.122559	2326.343750	25.523994
299.917450	891.038269	6358.455078	2282.876953	25.456968
300.287872	893.564514	6283.855469	2268.090576	25.500036
300.658234	910.728455	6198.184082	2246.617188	25.265245
301.028564	914.592285	6121.949707	2225.514893	25.174431
301.398865	910.654114	6059.757813	2219.867920	25.426054
301.769135	898.171326	6019.857910	2209.837158	25.610037
302.139374	893.490234	6000.835938	2216.078857	25.895811
302.509583	900.251770	5968.365723	2192.822021	25.503971
302.879791	908.499329	5888.268066	2185.020264	25.634144
303.249939	909.539612	5768.937500	2151.063721	25.548929
303.620087	908.202148	5660.678223	2133.677002	25.786030
303.990173	913.923523	5595.664063	2115.398682	25.663000
304.360260	916.672668	5544.766113	2107.819580	25.737316
304.730286	920.759277	5528.122559	2098.085938	25.553154
305.100281	911.322937	5510.661621	2095.039307	25.736662
305.470276	904.041199	5525.076172	2099.423340	25.868275
305.840179	898.319824	5518.834473	2108.116943	26.183168
306.210144	903.669617	5542.240234	2107.447998	25.951492
306.579987	917.192688	5563.267578	2112.649170	25.730463
306.949890	924.771667	5629.471191	2107.596436	25.141344
307.319702	925.291748	5700.281738	2124.612061	25.116707
307.689484	918.381653	5818.200684	2137.169189	24.874136
308.059265	915.855408	5913.753906	2170.605469	25.105553
308.429016	911.471497	6054.111816	2196.760010	24.992777
308.798737	907.161926	6158.878418	2232.351074	25.233450
309.168396	901.440613	6299.459473	2271.285889	25.376814
309.538055	905.155762	6377.031250	2286.146240	25.237974
309.907684	913.849121	6430.454590	2286.814941	24.887875
310.277313	908.722351	6445.463379	2292.610352	24.994629
310.646851	904.858459	6442.789063	2301.303711	25.216013
311.016388	899.583008	6442.045410	2308.214111	25.415258
311.385895	916.078186	6364.622559	2287.632080	25.172852
311.755371	913.106140	6309.712402	2284.808838	25.417873
312.124817	905.824463	6235.632813	2277.081299	25.728069
312.494232	905.973145	6194.989746	2261.997803	25.638502
312.863617	911.397217	6105.231934	2229.527100	25.378740
313.232971	916.078186	6059.164063	2208.945557	25.137970
313.602295	907.236145	6051.361816	2204.561768	25.219557
313.971619	911.991516	6116.971191	2225.886475	25.243040
314.340820	915.781067	6159.546875	2235.620117	25.169682
314.710083	919.198975	6223.521484	2258.802734	25.254946
315.079285	915.632385	6229.837402	2257.911133	25.258318
315.448486	920.982239	6239.422363	2261.997803	25.214455
315.817596	923.657166	6113.776855	2218.679443	24.951683
316.186707	916.821289	5963.982910	2162.580811	24.682379
316.555786	914.963684	5769.160645	2099.349121	24.399206
316.924866	909.093811	5622.338379	2065.392822	24.532974
317.293884	911.248596	5529.682129	2044.959595	24.547520
317.662872	900.549011	5472.841309	2038.123657	24.879745
318.031830	900.400391	5477.818848	2044.662231	24.997972
318.400757	902.555176	5501.150391	2062.346436	25.220556
318.769684	909.093750	5555.985840	2084.414307	25.292616
319.138550	903.298157	5595.886719	2087.312012	25.231575
319.507416	898.096985	5617.657715	2085.974365	25.169239
319.876190	901.069092	5601.830566	2063.683838	24.732475
320.244995	910.059753	5556.357422	2058.705322	24.721737
320.613770	916.375488	5478.488281	2037.306274	24.570431
320.982483	910.802795	5418.600098	2030.098999	24.830223
321.351166	905.675842	5369.411621	2009.962891	24.739079
