Jaz Data File
++++++++++++++++++++++++++++++++++++
Date: Fri Jun 04 16:20:53 2021
User: jaz
Dark Spectrum Present: Yes
Reference Spectrum Present: Yes
Processed Spectrum Present: Yes
Spectrometers: JAZA3586
Integration Time (usec): 62000 (JAZA3586)
Spectra Averaged: 10 (JAZA3586)
Boxcar Smoothing: 1 (JAZA3586)
Correct for Electrical Dark: No (JAZA3586)
Strobe/Lamp Enabled: Yes (JAZA3586)
Correct for Detector Non-linearity: No (JAZA3586)
Correct for Stray Light: No (JAZA3586)
Number of Pixels in Processed Spectrum: 2048
>>>>>Begin Processed Spectral Data<<<<<
W	D	R	S	P
191.335022	0.000000	0.000000	0.000000	0.000000
191.713211	303.749542	300.480194	292.529816	343.179321
192.091385	607.053284	601.406250	599.028503	142.106110
192.469528	910.802795	909.242432	901.143372	619.049500
192.847641	907.979248	918.307373	913.774841	56.114670
193.225739	908.647949	930.121521	916.672668	37.370213
193.603790	914.220703	935.099792	930.492981	77.935760
193.981842	924.920227	939.855164	942.455750	117.412766
194.359863	935.694275	945.204895	946.765320	116.407181
194.737854	945.205017	947.879700	945.130615	-2.781708
195.115829	950.257507	948.102600	946.765320	162.057434
195.493774	951.074890	953.452454	956.573242	231.259949
195.871704	949.143005	961.105774	960.957092	98.757133
196.249603	946.913879	966.901367	962.591797	78.438660
196.627457	949.365906	957.762146	955.978821	78.760429
197.005310	944.833435	947.359680	953.378174	338.238708
197.383133	956.944763	942.009827	949.514465	49.751118
197.760910	960.734192	944.684753	950.108887	66.203598
198.138687	968.684570	944.016052	944.090393	99.698639
198.516449	956.944641	947.211121	938.294739	191.604904
198.894180	948.251282	949.143005	935.991394	-1374.852783
199.271866	934.430969	947.211121	944.981934	82.557426
199.649536	933.093567	944.907715	949.142883	135.848282
200.027191	929.824219	943.718811	946.616516	120.854912
200.404816	931.830383	947.136780	941.638367	64.077675
200.782410	931.458984	965.118103	947.211121	46.799015
201.159988	936.437256	969.724915	962.666016	78.794243
201.537537	941.341248	981.984802	972.176758	75.868141
201.915070	946.839600	973.068542	974.034363	103.682266
202.292557	940.375244	978.566895	967.867188	71.984169
202.670029	941.192566	976.337708	968.907471	78.858421
203.047485	933.093567	979.309875	971.359436	82.797333
203.424911	932.945007	975.000305	967.421387	81.978683
203.802292	925.291809	979.904297	961.625793	66.530540
204.179688	928.709717	975.223145	963.854919	75.559265
204.557037	928.486816	975.148865	975.817627	101.433205
204.934357	934.876892	970.765076	973.885742	108.695526
205.311661	927.297913	970.765076	968.090149	93.846100
205.688934	928.783997	966.306946	957.539246	76.633766
206.066177	925.663269	965.266785	959.322449	84.990387
206.443390	929.081238	964.597961	959.396729	85.355537
206.820587	932.276184	970.467834	962.145996	78.210320
207.197769	929.229736	971.285156	966.975647	89.752785
207.574921	925.291687	978.121033	964.449402	74.121140
207.952042	918.010071	975.371826	961.848633	76.424721
208.329147	927.892334	969.947754	962.071594	81.271950
208.706223	951.074768	988.820557	989.786438	102.558914
209.083267	955.904480	987.706055	992.981506	116.588646
209.460297	953.972656	996.696594	987.483154	78.434944
209.837280	933.390808	967.644287	959.396729	75.921982
210.214264	932.127625	966.083984	956.870422	72.866463
210.591217	923.954346	963.632019	960.585632	92.322166
210.968124	929.229797	965.712402	964.969421	97.963463
211.345016	924.400146	970.987976	964.003479	85.007896
211.721893	925.217529	969.576172	964.077820	87.604782
212.098724	922.171082	971.210938	953.601135	64.090836
212.475555	928.709717	971.582336	951.669250	53.552906
212.852356	934.876770	971.136536	947.879822	35.860828
213.229126	932.722107	970.987976	950.926208	47.572685
213.605865	925.811951	968.907532	951.817810	60.344608
213.982590	920.684998	973.588623	958.505066	71.488617
214.359283	919.570496	967.718689	966.306824	97.067665
214.735931	923.731445	966.752747	962.517395	90.155220
215.112579	924.251648	958.505127	952.337952	81.995476
215.489197	925.143250	962.220276	948.399902	62.725239
215.865799	923.508606	961.254333	947.359680	63.188805
216.242355	921.205261	959.471008	948.994324	72.621246
216.618896	921.502441	958.133606	948.994385	75.050697
216.995407	924.177246	959.173828	953.229553	83.014702
217.371902	926.332031	965.638123	953.452454	68.998016
217.748367	932.350525	968.238770	948.994385	46.376911
218.124802	935.842773	964.895203	958.653748	78.516579
218.501236	933.093567	959.619690	957.464844	91.876511
218.877609	924.697449	963.780701	956.721863	81.938972
219.253983	920.462158	971.136658	945.873596	50.146400
219.630295	927.000793	973.291321	954.344177	59.069069
220.006592	928.561218	971.582336	958.505127	69.602814
220.382889	928.783997	966.009705	958.505127	79.840340
220.759140	928.263855	963.706299	957.167664	81.551399
221.135391	928.635437	966.975586	957.985046	76.550591
221.511581	925.737610	972.028137	959.173828	72.231232
221.887772	921.502380	975.074646	953.155273	59.084476
222.263931	926.257751	973.588562	951.000488	52.276173
222.640060	931.310303	974.182922	961.848633	71.230377
223.016159	931.458923	975.668945	969.130371	85.210197
223.392212	927.743835	973.588562	981.836121	117.990204
223.768265	918.827454	969.278992	975.669128	112.665894
224.144302	921.056580	971.210876	973.737122	105.036949
224.520294	919.496155	971.730957	960.362732	78.236298
224.896286	924.474426	970.542175	955.681580	67.741867
225.272217	925.960510	966.604065	957.390625	77.331116
225.648148	925.886230	969.353333	968.015930	96.923187
226.024048	925.143127	972.696960	970.765076	95.937477
226.399902	916.375488	972.845520	973.811462	101.710541
226.775772	914.815125	968.758972	966.529785	95.867577
227.151581	920.610779	966.678406	967.792969	102.419403
227.527374	921.428040	964.746521	958.950928	86.620972
227.903137	918.084473	963.706299	959.471008	90.716522
228.278870	912.511719	956.573242	962.963196	114.502342
228.654572	915.260925	960.362610	964.226379	108.566795
229.030273	921.948059	960.659851	969.056091	121.689102
229.405930	920.610657	969.873352	962.294434	84.615295
229.781555	920.685059	972.994080	964.077820	82.954643
230.157181	920.090576	977.600830	957.910645	65.762306
230.532761	928.635437	978.789734	954.046875	50.666523
230.908325	931.533203	969.576172	948.474182	44.531170
231.283859	937.180176	962.517517	946.022217	34.897274
231.659332	931.533203	957.687805	948.771423	65.908936
232.034821	931.235901	958.728027	948.325623	62.162239
232.410263	923.880066	963.037598	953.378235	75.332047
232.785690	922.765442	971.805237	955.012878	65.757690
233.161087	924.474426	977.675110	963.780579	73.882797
233.536469	926.257751	974.182922	967.570007	86.201584
233.911804	926.480530	970.319275	968.981750	96.948990
234.287140	919.793274	968.461670	964.152039	91.144905
234.662430	926.480652	972.176758	961.477234	76.585480
235.037704	929.304199	971.730957	960.288391	73.029839
235.412933	937.997559	968.981750	962.591797	79.376732
235.788162	930.567322	966.901367	960.511230	82.412811
236.163345	927.892395	963.037537	962.220215	97.674438
236.538513	915.929688	967.718689	965.118103	94.978500
236.913635	909.391052	971.582336	967.272766	93.070457
237.288742	914.517883	977.452332	961.031433	73.907936
237.663834	927.743713	975.743347	961.031433	69.349945
238.038879	927.966614	974.703125	962.443115	73.767815
238.413910	927.297913	974.108643	963.632019	77.619186
238.788910	923.285645	977.229309	959.619629	67.355423
239.163879	936.139954	981.464600	958.579407	49.508282
239.538834	928.040955	980.721619	961.254333	63.046623
239.913757	927.075012	984.213867	961.328613	59.948002
240.288651	915.781006	988.449036	959.025208	59.509254
240.663528	924.548645	992.535645	958.728027	50.273411
241.038361	920.833679	991.272644	959.396667	54.746670
241.413177	928.783997	986.888855	964.820801	62.020294
241.787979	920.016357	985.625671	966.752686	71.234291
242.162735	922.022522	990.232422	963.260498	60.457466
242.537476	916.598389	997.439697	957.390625	50.459644
242.912170	926.332031	1002.715149	957.464905	40.758842
243.286865	931.458923	998.034180	960.957092	44.308006
243.661514	930.492981	987.185974	961.477234	54.652702
244.036148	924.474426	981.167419	960.436951	63.433807
244.410751	915.483887	981.761902	966.752686	77.354156
244.785339	924.846008	988.894836	962.071594	58.120636
245.159882	928.115295	991.495422	964.375000	57.209896
245.534378	934.876892	998.851379	957.910645	36.004589
245.908890	931.310303	991.198242	965.266602	56.699730
246.283356	926.926453	995.656433	964.375000	54.486481
246.657791	913.106140	998.628601	966.529785	62.467384
247.032196	909.985352	1005.167175	966.455566	59.328781
247.406586	910.877014	1015.643860	962.814636	49.574482
247.780960	925.737610	1020.622253	958.579407	34.612343
248.155289	922.988342	1024.485962	957.167664	33.674999
248.529602	918.158691	1014.009216	964.226379	48.062008
248.903870	916.375488	997.885559	965.861023	60.710945
249.278122	921.502441	993.724609	960.882813	54.526711
249.652344	929.155579	993.204529	957.316223	43.967381
250.026550	934.356750	998.034180	961.997375	43.407257
250.400711	936.660095	1001.377747	963.483459	41.446751
250.774857	929.006897	1000.114563	970.542175	58.411816
251.148987	927.892395	995.210632	965.489563	55.849899
251.523071	929.006897	994.913391	972.251160	65.614571
251.897125	931.681824	992.164307	969.576233	62.653526
252.271164	928.263855	997.439758	976.783508	70.139526
252.645187	922.839783	994.244690	981.910461	82.726357
253.019165	916.895569	996.770996	979.309753	78.139404
253.393112	916.449768	1009.105225	978.789734	67.281487
253.767044	919.050354	1010.962830	977.377930	63.459911
254.140930	930.418701	1008.362244	978.492493	61.677708
254.514801	930.938782	996.399475	972.028137	62.769508
254.888657	932.127686	996.473816	966.901306	54.041512
255.262466	932.945007	1002.640930	969.130371	51.918911
255.636276	928.709717	1012.077332	972.102478	52.049900
256.010010	923.657166	1014.529358	970.987976	52.085033
256.383759	921.205139	1020.250671	973.439941	52.738171
256.757446	923.285645	1015.049500	975.223206	56.599148
257.131134	917.935791	1015.272400	973.291321	56.870205
257.504791	918.381653	1008.287903	971.582458	59.173645
257.878418	915.335205	1007.173340	969.278992	58.737896
258.252014	921.948181	1017.501465	973.365540	53.810143
258.625580	930.938782	1027.160767	974.405823	45.173710
258.999115	934.356689	1035.259766	977.006409	42.268005
259.372650	934.951172	1044.547607	972.028137	33.830448
259.746124	924.103027	1050.937622	967.570007	34.270603
260.119598	922.319641	1058.813721	970.987976	35.656006
260.493042	930.195740	1056.064575	975.520447	36.009476
260.866425	933.093567	1063.346191	975.223206	32.344559
261.239838	929.601318	1071.668091	965.712402	25.418388
261.613159	913.923523	1076.200562	968.090149	33.379108
261.986511	915.409485	1066.541260	968.907471	35.398239
262.359802	923.285645	1058.070679	972.696960	36.659348
262.733063	936.808655	1047.817017	969.056091	29.049557
263.106293	929.378418	1045.959473	971.136536	35.818958
263.479523	926.331970	1050.491943	967.644287	33.273457
263.852692	919.347595	1052.720947	970.467834	38.328674
264.225861	923.062683	1054.652954	964.300720	31.338211
264.598969	917.489990	1048.634399	967.644287	38.243565
264.972076	915.112305	1046.479492	967.644287	39.988663
265.345154	917.564270	1052.126587	972.028137	40.474827
265.718201	921.873840	1053.612671	980.870178	44.782799
266.091217	929.155518	1062.826172	983.842285	40.911572
266.464203	920.016296	1062.157349	976.634949	39.832722
266.837158	922.542542	1066.764160	964.300720	28.954174
267.210114	921.502258	1066.764160	959.619629	26.240446
267.583038	932.350586	1068.918945	965.861023	24.537483
267.955902	936.288574	1071.073730	972.399719	26.791634
268.328766	935.471252	1072.782715	974.405945	28.355021
268.701569	928.709717	1065.203735	977.229309	35.547047
269.074371	923.137024	1062.900391	977.080750	38.596470
269.447144	924.920227	1070.405029	973.885742	33.656792
269.819885	925.366028	1088.757813	973.960144	29.740856
270.192596	926.109070	1096.708130	977.080811	29.878090
270.565277	921.725281	1100.869019	979.978699	32.517696
270.937927	921.948059	1102.355103	982.802185	33.731567
271.310577	926.109070	1112.906128	972.548340	24.860815
271.683136	925.886169	1123.011230	970.839355	22.804399
272.055725	925.514648	1135.568481	964.746521	18.677055
272.428284	914.963684	1148.868652	973.885681	25.190571
272.800812	925.068848	1154.144165	976.114807	22.283484
273.173279	935.768494	1149.091675	978.418274	19.993036
273.545776	941.043945	1142.552856	971.805359	15.265535
273.918152	931.830383	1134.008179	969.427673	18.596151
274.290558	924.771667	1134.528198	962.071594	17.782486
274.662964	925.960449	1130.292969	966.529724	19.854536
275.035278	927.520813	1128.509766	971.805237	22.033262
275.407593	921.948181	1129.624390	977.898132	26.940954
275.779907	921.799561	1134.602661	975.817627	25.384060
276.152161	921.130859	1134.974121	967.644348	21.751205
276.524384	924.623047	1145.079224	970.170654	20.660618
276.896606	921.205139	1146.268066	968.461670	20.997030
277.268799	917.935791	1159.122437	970.616455	21.842281
277.640930	926.257813	1159.196777	966.232666	17.161085
278.013031	935.842773	1159.345337	965.192383	13.131665
278.385162	940.821045	1164.249390	964.226379	10.475544
278.757233	937.626038	1164.472290	967.421387	13.134601
279.129272	925.217468	1174.057251	966.752686	16.691549
279.501282	920.387878	1173.537231	964.820801	17.552059
279.873230	918.753174	1179.704346	960.511230	16.002249
280.245178	924.994568	1182.750732	963.334717	14.874580
280.617126	933.019226	1195.828003	968.684570	13.570834
280.988983	928.263855	1205.487427	975.817627	17.153582
281.360870	937.328796	1221.759644	980.275879	15.099305
281.732697	926.852112	1223.468628	977.749512	17.159328
282.104492	928.041016	1235.579956	974.628845	15.148596
282.476288	918.976074	1237.214600	967.198547	15.152934
282.848053	929.675598	1254.081299	971.805359	12.986751
283.219757	933.762390	1263.666382	968.461670	10.517993
283.591461	939.780762	1269.610596	974.480225	10.520413
283.963135	937.848938	1269.684937	969.204773	9.449196
284.334747	946.245117	1264.557983	974.034424	8.730186
284.706360	943.198730	1269.982056	977.377991	10.459304
285.077942	934.579590	1271.839722	980.052917	13.483161
285.449524	923.582825	1285.882935	976.337708	14.561100
285.821014	922.616943	1290.043823	973.142761	13.751258
286.192535	929.304199	1304.607056	978.715393	13.165686
286.563995	929.081238	1312.557495	983.545105	14.202670
286.935425	930.790222	1321.696777	982.579163	13.248420
287.306824	926.480652	1318.798950	981.687500	14.071954
287.678223	931.310242	1304.978638	984.511047	14.237438
288.049561	928.635437	1304.458618	989.563660	16.211939
288.420898	929.304138	1305.276001	983.842346	14.505928
288.792145	926.777832	1309.585449	974.182922	12.383529
289.163452	926.554871	1313.374878	977.600891	13.196323
289.534668	923.508484	1324.594604	977.675110	13.504987
289.905914	919.793457	1340.866821	986.071350	15.740225
290.277039	924.028625	1363.232056	972.696960	11.081046
290.648193	933.836609	1370.439453	971.953918	8.730431
291.019318	930.567200	1371.851074	971.730957	9.328180
291.390381	922.468262	1366.278320	974.925964	11.819855
291.761475	919.644775	1367.838745	977.675232	12.947621
292.132507	917.192688	1376.903809	974.331604	12.429309
292.503510	924.251465	1372.965698	976.337830	11.607915
292.874481	927.297852	1382.253540	979.830017	11.546656
293.245422	935.545593	1391.169922	979.829895	9.719477
293.616364	927.297913	1400.903442	980.275696	11.186057
293.987213	925.143127	1399.566040	982.504883	12.090849
294.358093	924.028625	1417.175781	982.727783	11.902970
294.728943	927.595215	1430.773071	989.043518	12.212045
295.099731	926.406311	1455.887573	981.167480	10.342419
295.470490	927.149353	1470.302246	977.749512	9.316007
295.841248	924.771667	1500.692017	970.987976	8.024775
296.211975	918.530273	1518.078735	970.096375	8.600822
296.582642	915.855286	1530.264648	974.182922	9.493286
296.953308	919.719055	1535.688843	980.201477	9.819057
297.323883	926.852112	1548.022949	985.922791	9.509570
297.694519	931.458923	1553.224121	989.786438	9.380955
298.065063	930.790222	1568.456055	991.718323	9.554864
298.435608	926.109131	1559.242676	988.969177	9.928403
298.806122	920.387878	1542.152954	985.031189	10.396742
299.176575	926.257751	1508.345093	976.486389	8.629055
299.547028	927.743835	1490.809937	973.885803	8.194769
299.917450	926.703613	1487.540405	974.405945	8.505564
300.287872	924.251526	1481.447632	981.390320	10.254701
300.658234	922.393982	1473.942993	986.814453	11.679917
301.028564	924.325867	1469.187866	989.712219	12.000535
301.398865	916.821289	1477.138184	986.665833	12.465186
301.769135	921.428040	1489.695313	979.681396	10.251049
302.139374	925.291748	1499.057251	976.857910	8.987324
302.509583	924.102966	1495.490845	979.532776	9.700908
302.879791	924.325867	1494.153442	990.232361	11.566042
303.249939	915.186584	1486.574585	990.752441	13.224964
303.620087	920.164856	1487.391968	987.408875	11.854867
303.990173	918.753113	1489.695190	986.665833	11.894853
304.360260	931.681702	1487.986328	988.374817	10.191020
304.730286	936.437195	1490.661133	985.699890	8.888590
305.100281	934.951172	1481.596191	980.795898	8.386562
305.470276	933.985168	1493.930298	972.399719	6.860414
305.840179	930.938782	1498.017212	968.387390	6.603779
306.210144	931.607605	1503.961304	962.666016	5.426436
306.579987	928.932617	1503.664185	968.164368	6.826100
306.949890	925.663269	1509.608398	981.093079	9.492297
307.319702	920.536377	1523.280151	984.288086	10.576917
307.689484	917.415710	1536.134399	986.517273	11.168494
308.059265	918.901672	1544.159180	983.024963	10.255501
308.429016	921.130798	1559.837036	985.328308	10.051179
308.798737	924.845886	1583.762573	987.185852	9.460979
309.168396	925.663269	1603.304077	987.706055	9.155704
309.538055	931.756104	1621.805542	996.250977	9.346414
309.907684	930.864502	1627.303833	991.792786	8.748542
310.277313	930.270081	1642.313110	991.124084	8.546394
310.646851	923.582825	1664.232056	976.857910	7.193025
311.016388	923.508606	1677.235352	980.424500	7.551264
311.385895	919.496155	1685.037109	980.127258	7.920034
311.755371	924.697327	1683.253906	987.037354	8.218244
312.124817	922.468262	1685.557251	987.854675	8.568648
312.494232	933.093567	1682.585083	986.071350	7.068497
312.863617	924.920349	1680.950562	993.204407	9.031921
313.232971	924.548828	1677.903931	992.684387	9.044282
313.602295	919.050354	1676.343628	994.096130	9.909738
313.971619	929.527039	1670.622437	984.362366	7.399227
314.340820	931.161804	1674.485962	983.322083	7.017164
314.710083	937.923157	1689.643921	984.139465	6.148068
315.079285	931.681824	1706.139160	997.216797	8.462050
315.448486	930.715881	1711.265991	1003.606934	9.338421
315.817596	924.400208	1709.111206	1014.678040	11.504597
316.186707	923.508545	1703.612793	1011.334290	11.258206
316.555786	928.189636	1687.043335	1012.968994	11.172029
316.924866	931.384583	1668.170532	1011.780090	10.911651
317.293884	936.511536	1645.285156	1010.665710	10.462321
317.662872	931.904602	1651.898071	1008.659424	10.660489
318.031830	928.115234	1650.932129	999.817383	9.919822
318.400757	923.136963	1666.238647	1004.275452	10.918895
318.769684	919.347473	1674.708984	1009.253723	11.902413
319.138550	912.288818	1692.690430	1014.900879	13.148623
319.507416	919.644775	1701.903809	1021.588135	13.031919
319.876190	921.130859	1704.578735	1022.405457	12.926782
320.244995	929.972839	1711.934570	1035.557007	13.502473
320.613770	929.898621	1707.253540	1036.225708	13.678061
320.982483	928.041016	1702.052368	1042.318481	14.764314
321.351166	919.644775	1692.318726	1033.328003	14.712962
321.719818	919.644836	1682.213501	1025.303345	13.855606
322.088440	919.050293	1677.903931	1032.882202	15.000509
322.457062	922.691162	1682.510742	1039.643677	15.392143
322.825623	917.861511	1707.253540	1055.098511	17.385151
323.194183	922.914063	1730.584839	1060.151245	16.991724
323.562653	920.462097	1757.110840	1069.884766	17.859665
323.931183	922.468262	1772.491333	1076.200562	18.085663
