Jaz Data File
++++++++++++++++++++++++++++++++++++
Date: Fri Jun 04 16:03:38 2021
User: jaz
Dark Spectrum Present: Yes
Reference Spectrum Present: Yes
Processed Spectrum Present: Yes
Spectrometers: JAZA3586
Integration Time (usec): 24600 (JAZA3586)
Spectra Averaged: 10 (JAZA3586)
Boxcar Smoothing: 1 (JAZA3586)
Correct for Electrical Dark: No (JAZA3586)
Strobe/Lamp Enabled: Yes (JAZA3586)
Correct for Detector Non-linearity: No (JAZA3586)
Correct for Stray Light: No (JAZA3586)
Number of Pixels in Processed Spectrum: 2048
>>>>>Begin Processed Spectral Data<<<<<
W	D	R	S	P
191.335022	0.000000	0.000000	0.000000	0.000000
191.713211	387.488678	386.225494	380.281342	570.569214
192.091385	782.481934	776.240479	760.191162	357.140625
192.469528	1172.942749	1174.948853	1145.302124	-1377.826416
192.847641	1184.311157	1189.289429	1153.252563	-623.883057
193.225739	1196.571167	1199.320190	1165.958130	-1113.596802
193.603790	1211.877319	1200.360474	1176.434937	307.743835
193.981842	1215.518188	1204.224121	1184.459595	274.999176
194.359863	1208.905273	1203.852661	1186.168579	449.998779
194.737854	1212.768921	1214.849487	1183.642334	-1399.935425
195.115829	1216.855591	1212.694702	1177.698120	941.084290
195.493774	1224.806030	1210.465576	1175.097534	346.631256
195.871704	1219.159058	1204.892944	1179.481445	278.124878
196.249603	1223.468628	1208.533691	1184.756958	259.202118
196.627457	1216.781372	1210.985718	1182.899414	584.609741
197.005310	1218.787598	1215.221069	1183.716675	983.335022
197.383133	1212.026001	1212.248901	1189.735107	-10000.383789
197.760910	1210.688599	1217.821655	1198.354370	-172.916458
198.138687	1208.013672	1216.707031	1199.765991	-94.873344
198.516449	1204.521484	1217.301392	1196.125244	-65.698761
198.894180	1206.527466	1213.883545	1192.335815	-192.924118
199.271866	1202.069458	1216.038330	1185.574219	-118.085693
199.649536	1199.171753	1215.221069	1175.543457	-147.223068
200.027191	1201.846558	1219.901978	1175.246216	-147.326080
200.404816	1200.360474	1213.437622	1178.886963	-164.206375
200.782410	1202.440918	1226.069214	1182.825073	-83.018448
201.159988	1203.183960	1232.756470	1188.843628	-48.492104
201.537537	1212.397461	1237.586060	1188.992188	-92.920113
201.915070	1209.796875	1236.694458	1186.243042	-87.568588
202.292557	1204.149902	1234.911255	1178.366821	-83.816475
202.670029	1196.422485	1242.490112	1186.168579	-22.258377
203.047485	1196.050903	1249.400269	1196.942505	1.671251
203.424911	1191.592773	1261.734497	1209.573853	25.635353
203.802292	1197.462524	1257.053345	1205.635864	13.715770
204.179688	1197.314087	1248.359985	1201.549316	8.296905
204.557037	1199.691772	1237.957642	1193.376099	-16.504719
204.934357	1188.397827	1239.518066	1186.020142	-4.651163
205.311661	1187.060181	1244.867798	1186.911743	-0.256778
205.688934	1192.038574	1253.858398	1190.106689	-3.125025
206.066177	1193.004517	1257.796387	1190.403809	-4.013942
206.443390	1195.902222	1252.743774	1184.608276	-19.869171
206.820587	1191.741333	1246.428101	1176.360718	-28.124929
207.197769	1198.057129	1237.363281	1179.630005	-46.881016
207.574921	1199.914551	1239.517944	1180.150269	-49.905525
207.952042	1195.307739	1233.127930	1181.561890	-36.345268
208.329147	1190.626831	1241.747070	1181.413208	-18.023436
208.706223	1191.444092	1237.586060	1188.323364	-6.763317
209.083267	1196.868286	1233.499390	1188.323364	-23.326958
209.460297	1206.378906	1227.109497	1177.698120	-138.350067
209.837280	1203.926880	1224.806030	1166.107056	-181.136795
210.214264	1195.456421	1231.567627	1170.862427	-68.106270
210.591217	1186.168579	1228.595581	1183.716675	-5.779113
210.968124	1186.094360	1228.223999	1188.397827	5.467568
211.345016	1190.032349	1233.053589	1180.893188	-21.243368
211.721893	1193.004517	1244.496216	1174.280151	-36.363853
212.098724	1191.592773	1248.657227	1183.716675	-13.802110
212.475555	1193.227417	1249.771851	1193.227417	0.000000
212.852356	1191.369873	1240.929810	1196.273804	9.894950
213.229126	1188.917847	1246.799683	1193.227417	7.445462
213.605865	1193.598999	1250.663330	1189.958130	-6.380289
213.982590	1197.388550	1256.830444	1185.202759	-20.500341
214.359283	1196.645386	1256.681885	1188.917847	-12.871402
214.735931	1192.261475	1249.028687	1184.905396	-12.958323
215.112579	1187.580444	1251.703613	1201.697876	22.016117
215.489197	1193.524536	1248.880249	1187.505981	-10.872509
215.865799	1187.431885	1243.381714	1185.945679	-2.656319
216.242355	1187.357544	1238.774902	1165.586792	-42.341248
216.618896	1182.379272	1232.310547	1168.410278	-27.976442
216.995407	1182.230469	1236.545898	1169.599121	-23.255543
217.371902	1183.270752	1230.824585	1169.822021	-28.281065
217.748367	1195.084961	1229.858521	1165.512573	-85.042740
218.124802	1206.304565	1228.001099	1159.494019	-215.751282
218.501236	1204.001221	1234.168213	1165.809692	-126.600388
218.877609	1188.843384	1244.570557	1175.692017	-23.599560
219.253983	1176.063354	1250.366211	1186.465820	14.000089
219.630295	1180.744507	1244.719238	1189.437988	13.588930
220.006592	1182.453613	1247.096802	1189.512329	10.919504
220.382889	1194.119019	1249.846069	1187.728882	-11.466849
220.759140	1195.307861	1256.904785	1181.041748	-23.160431
221.135391	1203.852661	1257.499146	1182.973633	-38.919659
221.511581	1203.258301	1251.332153	1186.911621	-34.003265
221.887772	1196.422485	1251.555054	1198.577148	3.908149
222.263931	1193.227417	1245.833740	1195.159302	3.672343
222.640060	1189.066528	1242.713013	1186.317139	-5.125014
223.016159	1190.329590	1241.821411	1178.886841	-22.222460
223.392212	1188.843506	1243.381714	1179.555664	-17.029972
223.768265	1186.094238	1250.514771	1184.831177	-1.960651
224.144302	1185.276978	1253.486938	1182.527832	-4.030416
224.520294	1188.249023	1251.183594	1184.756836	-5.548918
224.896286	1190.106567	1257.573608	1182.453491	-11.343430
225.272217	1193.598877	1257.127808	1186.168579	-11.695928
225.648148	1188.769409	1260.397095	1186.763062	-2.801079
226.024048	1191.964233	1254.452759	1187.877563	-6.539873
226.399902	1191.146851	1262.106079	1182.676392	-11.937078
226.775772	1198.428589	1261.140015	1177.623901	-33.175274
227.151581	1191.592651	1265.152344	1178.143921	-18.282743
227.527374	1192.558594	1260.322754	1183.865356	-12.828666
227.903137	1188.471924	1273.474243	1183.790894	-5.506944
228.278870	1188.992065	1284.248169	1185.648560	-3.510017
228.654572	1186.911621	1300.000366	1177.475220	-8.344244
229.030273	1183.939575	1312.111816	1184.162476	0.173907
229.405930	1187.729126	1317.461548	1182.750854	-3.837338
229.781555	1192.856079	1320.730957	1194.564941	1.336355
230.157181	1197.982910	1324.891846	1187.729004	-8.079736
230.532761	1198.279907	1332.024902	1189.958008	-6.222214
230.908325	1194.936401	1332.396362	1178.886963	-11.675718
231.283859	1189.512207	1324.297363	1183.493774	-4.465204
231.659332	1186.020020	1311.442993	1175.840454	-8.116189
232.034821	1189.661011	1304.978638	1178.143921	-9.987276
232.410263	1187.580444	1303.567017	1176.657837	-9.417131
232.785690	1192.855957	1298.588745	1178.441162	-13.633231
233.161087	1187.283203	1297.028198	1182.527832	-4.333110
233.536469	1194.564819	1292.272827	1183.345093	-11.482914
233.911804	1192.930176	1291.009766	1191.221191	-1.742447
234.287140	1193.524536	1292.421509	1193.227417	-0.300433
234.662430	1192.558594	1291.604248	1192.484375	-0.074934
235.037704	1197.091064	1300.223267	1192.707397	-4.250532
235.412933	1202.440918	1307.430786	1192.707397	-9.270914
235.788162	1197.091187	1317.164307	1194.416382	-2.227647
236.163345	1193.301758	1320.507935	1188.769287	-3.563090
236.538513	1195.233521	1319.244751	1192.187134	-2.456541
236.913635	1197.611206	1312.260376	1192.261475	-4.666175
237.288742	1196.942505	1309.585571	1196.496704	-0.395764
237.663834	1191.444214	1304.012817	1198.651489	6.402563
238.038879	1189.958130	1307.802124	1198.205566	6.998606
238.413910	1192.558716	1315.380981	1198.280029	4.658206
238.788910	1196.868286	1316.644165	1189.140869	-6.451563
239.163879	1202.069458	1317.089966	1183.642456	-16.020622
239.538834	1201.846558	1314.638062	1187.803467	-12.450486
239.913757	1198.800171	1325.857666	1188.769409	-7.894663
240.288651	1200.954956	1341.238281	1189.363647	-8.262784
240.663528	1200.657715	1351.046387	1179.555664	-14.031675
241.038361	1196.793945	1366.798462	1183.716675	-7.692307
241.413177	1193.524536	1384.110962	1184.013794	-4.990252
241.787979	1199.394531	1414.649536	1186.391479	-6.040766
242.162735	1194.490601	1437.163208	1183.196411	-4.654085
242.537476	1190.849731	1452.989624	1190.329468	-0.198468
242.912170	1187.729004	1465.101074	1196.570923	3.187747
243.286865	1186.837280	1482.042114	1190.106812	1.107547
243.661514	1186.391602	1493.484741	1183.567993	-0.919463
244.036148	1187.134644	1488.506470	1181.041626	-2.021761
244.410751	1196.422485	1474.908813	1185.351196	-3.975523
244.785339	1201.995117	1457.967896	1180.298706	-8.476062
245.159882	1201.252075	1450.091797	1174.205933	-10.868901
245.534378	1201.549194	1447.639771	1178.144043	-9.510787
245.908890	1200.806274	1471.639648	1183.642456	-6.337409
246.283356	1200.360474	1503.515625	1188.026245	-4.068619
246.657791	1195.976685	1551.292114	1185.499878	-2.948593
247.032196	1191.741333	1598.846069	1187.357422	-1.076851
247.406586	1194.787720	1662.300415	1191.444092	-0.715195
247.780960	1191.667114	1722.188477	1190.032349	-0.308143
248.155289	1189.363647	1747.599976	1188.917847	-0.079859
248.529602	1183.047852	1741.878784	1184.682495	0.292511
248.903870	1195.159302	1695.067993	1186.763062	-1.679555
249.278122	1198.725830	1649.148804	1183.716553	-3.332263
249.652344	1201.995117	1596.096680	1179.852905	-5.618402
250.026550	1195.456543	1558.648071	1174.948853	-5.646522
250.400711	1199.989136	1534.871460	1180.224487	-5.901968
250.774857	1201.400757	1520.456665	1178.886963	-7.056379
251.148987	1197.759888	1518.004517	1181.116089	-5.197214
251.523071	1190.255249	1513.769165	1180.447388	-3.031666
251.897125	1186.837280	1524.766113	1182.379272	-1.319215
252.271164	1195.159302	1534.574097	1184.682617	-3.086691
252.645187	1201.177856	1558.127930	1187.357544	-3.871778
253.019165	1196.645264	1576.852173	1193.301880	-0.879359
253.393112	1194.787720	1585.099976	1197.016968	0.571145
253.767044	1195.307983	1572.914429	1197.685547	0.629641
254.140930	1201.475098	1541.781616	1193.970459	-2.205259
254.514801	1196.942505	1523.131470	1194.936401	-0.615013
254.888657	1196.125244	1503.738647	1189.140747	-2.270544
255.262466	1192.855835	1508.642578	1192.707397	-0.047006
255.636276	1192.038452	1503.589966	1189.140869	-0.930049
256.010010	1192.781616	1508.493774	1194.713501	0.611913
256.383759	1195.159302	1519.861938	1192.855957	-0.709370
256.757446	1196.050903	1540.221069	1195.084961	-0.280658
257.131134	1190.775269	1566.895874	1190.106689	-0.177757
257.504791	1188.546265	1589.409668	1181.933350	-1.649668
257.878418	1192.187134	1620.319458	1175.023315	-4.008998
258.252014	1190.849731	1657.099243	1176.137817	-3.155374
258.625580	1193.821777	1694.027710	1181.041748	-2.554954
258.999115	1196.496704	1755.401733	1185.871460	-1.901082
259.372650	1199.840332	1837.803345	1186.763062	-2.049848
259.746124	1190.478149	1936.105957	1183.865356	-0.886876
260.119598	1183.122192	2027.572632	1177.029419	-0.721508
260.493042	1179.852905	2101.429443	1171.976929	-0.854620
260.866425	1188.620605	2141.181396	1177.400879	-1.177849
261.239838	1191.295410	2115.547119	1179.927124	-1.229999
261.613159	1198.948608	2026.160767	1182.230591	-2.021007
261.986511	1194.639282	1921.914063	1179.555664	-2.073992
262.359802	1194.862061	1844.342163	1186.540161	-1.281317
262.733063	1191.146851	1812.466309	1186.763062	-0.705561
263.106293	1197.685425	1800.875000	1191.815796	-0.973099
263.479523	1194.564819	1787.277710	1185.351318	-1.554463
263.852692	1197.314087	1784.156860	1182.304932	-2.557611
264.225861	1195.010620	1772.862915	1183.196411	-2.044503
264.598969	1203.852661	1773.754517	1185.871338	-3.155161
264.972076	1204.447144	1764.764038	1188.694824	-2.811323
265.345154	1204.372681	1772.045532	1182.230591	-3.900502
265.718201	1201.474976	1786.683105	1183.642334	-3.047231
266.091217	1197.091187	1816.329956	1190.552490	-1.055925
266.464203	1191.146973	1851.846558	1190.106812	-0.157433
266.837158	1188.843628	1894.124878	1181.784790	-1.000854
267.210114	1190.255371	1932.836548	1175.097534	-2.041236
267.583038	1194.342041	1960.328735	1180.001465	-1.872170
267.955902	1189.958130	1966.272949	1190.701050	0.095698
268.328766	1188.174805	1969.913696	1196.199341	1.026498
268.701569	1189.586548	1969.022095	1201.029053	1.468050
269.074371	1193.598877	1982.842407	1199.988892	0.809638
269.447144	1195.679321	1986.185913	1198.874390	0.404180
269.819885	1195.307861	2008.030884	1189.735229	-0.685674
270.192596	1201.549316	2029.504395	1190.255249	-1.364092
270.565277	1202.218140	2077.132568	1188.100464	-1.613606
270.937927	1208.310791	2138.655273	1197.239746	-1.189994
271.310577	1201.846558	2206.642334	1203.109619	0.125703
271.683136	1200.731934	2290.901611	1200.954712	0.020435
272.055725	1192.038452	2350.640869	1192.187134	0.012833
272.428284	1194.341919	2380.659180	1182.230469	-1.020928
272.800812	1191.592773	2357.179443	1195.159180	0.305975
273.173279	1188.843384	2322.554443	1197.462646	0.760270
273.545776	1186.242798	2302.789795	1198.800171	1.124661
273.918152	1189.735229	2282.059326	1192.558716	0.258484
274.290558	1196.199585	2252.784180	1194.564819	-0.154722
274.662964	1199.691772	2237.403564	1197.908447	-0.171852
275.035278	1199.245972	2224.474854	1188.026245	-1.094363
275.407593	1191.146851	2239.260986	1187.654663	-0.333188
275.779907	1190.106567	2248.400391	1182.899292	-0.681028
276.152161	1190.998169	2273.885986	1194.119019	0.288197
276.524384	1191.443970	2305.910889	1185.945679	-0.493356
276.896606	1188.769287	2340.981689	1184.905396	-0.335345
277.268799	1193.227417	2373.451904	1186.094238	-0.604392
277.640930	1202.515259	2388.015137	1185.276978	-1.454094
278.013031	1202.812378	2398.863281	1184.682617	-1.515802
278.385162	1199.691772	2404.064697	1176.212036	-1.949540
278.757233	1193.970337	2396.411377	1180.744507	-1.099915
279.129272	1203.035522	2384.374268	1183.716553	-1.635345
279.501282	1201.177856	2381.996582	1186.837280	-1.214460
279.873230	1202.069458	2407.185303	1183.196533	-1.566067
280.245178	1192.187134	2443.965088	1185.128418	-0.563895
280.617126	1189.437988	2506.305176	1187.208862	-0.169275
280.988983	1188.323364	2566.193115	1191.741333	0.248062
281.360870	1190.478149	2625.858154	1186.837402	-0.253643
281.732697	1191.518433	2684.780273	1179.407104	-0.811065
282.104492	1189.809448	2746.376953	1177.178101	-0.811487
282.476288	1187.431763	2805.150391	1181.561890	-0.362849
282.848053	1190.775391	2847.577393	1182.304810	-0.511261
283.219757	1196.125244	2867.639404	1189.661011	-0.386729
283.591461	1195.605103	2852.555908	1190.255249	-0.322873
283.963135	1194.267700	2831.676758	1194.044678	-0.013620
284.334747	1195.159302	2827.441406	1195.828003	0.040967
284.706360	1198.205688	2861.174805	1196.496826	-0.102760
285.077942	1198.428589	2914.375732	1197.834229	-0.034637
285.449524	1195.530762	2967.427734	1196.125244	0.033551
285.821014	1198.651489	3006.436768	1205.338745	0.369914
286.192535	1197.982788	3066.919189	1211.134399	0.703695
286.563995	1197.388428	3120.863037	1215.963989	0.965729
286.935425	1192.187256	3173.915039	1211.357300	0.967340
287.306824	1193.078735	3157.642578	1201.772217	0.442515
287.678223	1195.605103	3115.438721	1200.434814	0.251569
288.049561	1202.738159	3054.510498	1195.679321	-0.381194
288.420898	1202.663818	3007.105469	1205.933228	0.181187
288.792145	1201.326294	2986.672119	1197.908569	-0.191432
289.163452	1192.484253	2991.799072	1187.803223	-0.260156
289.534668	1187.431641	3032.294189	1175.840576	-0.628289
289.905914	1182.304810	3074.349365	1176.063477	-0.329872
290.277039	1188.769165	3150.732422	1180.744507	-0.409012
290.648193	1187.060181	3225.183594	1188.174927	0.054695
291.019318	1189.214966	3303.127197	1186.168701	-0.144106
291.390381	1181.859131	3336.786377	1190.478271	0.399974
291.761475	1183.865356	3328.687500	1188.100586	0.197463
292.132507	1182.825073	3301.418701	1184.979858	0.101708
292.503510	1179.852905	3267.462158	1181.264648	0.067625
292.874481	1183.493652	3247.177734	1181.561768	-0.093613
293.245422	1187.134644	3249.332275	1187.357422	0.010803
293.616364	1188.992188	3284.106201	1187.951782	-0.049659
293.987213	1188.620605	3327.870361	1182.007690	-0.309123
294.358093	1190.106689	3409.305908	1183.270874	-0.308031
294.728943	1195.902344	3496.983154	1183.939575	-0.519876
295.099731	1198.800049	3603.384521	1181.338989	-0.726157
295.470490	1194.416138	3661.860596	1182.304932	-0.490840
295.841248	1192.112793	3702.355713	1190.849731	-0.050316
296.211975	1192.261475	3742.330811	1198.205688	0.233100
296.582642	1197.313965	3815.890625	1193.153198	-0.158894
296.953308	1196.348145	3898.218018	1187.431763	-0.330008
297.323883	1190.552612	3972.149170	1185.054199	-0.197671
297.694519	1186.391602	4024.384033	1189.363647	0.104724
298.065063	1191.147095	4035.455078	1186.985962	-0.146297
298.435608	1195.382202	3997.709229	1188.026245	-0.262495
298.806122	1196.719604	3882.242920	1186.763062	-0.370749
299.176575	1197.165405	3752.212891	1189.066528	-0.316976
299.547028	1196.942505	3644.473877	1189.363647	-0.309653
299.917450	1197.091187	3595.657227	1191.072632	-0.250923
300.287872	1197.239746	3577.899170	1195.382080	-0.078032
300.658234	1196.719604	3559.768799	1191.890015	-0.204380
301.028564	1198.577271	3535.249023	1199.468872	0.038157
301.398865	1196.125244	3521.800049	1199.320190	0.137377
301.769135	1195.605103	3506.642578	1205.115845	0.411536
302.139374	1193.524536	3519.571289	1199.023071	0.236390
302.509583	1190.923950	3534.283203	1199.840332	0.380496
302.879791	1192.038452	3539.707764	1205.413086	0.569698
303.249939	1189.958008	3516.822266	1208.682373	0.804704
303.620087	1197.982788	3488.364014	1207.344971	0.408761
303.990173	1195.605103	3468.005127	1199.468872	0.170030
304.360260	1195.456421	3454.110352	1197.834106	0.105270
304.730286	1186.243042	3436.054932	1194.564819	0.369888
305.100281	1186.763062	3434.494385	1193.227417	0.287595
305.470276	1183.939575	3457.008057	1188.472046	0.199399
305.840179	1185.648560	3471.051514	1187.729004	0.091032
306.210144	1186.614502	3482.791260	1192.038574	0.236222
306.579987	1194.193359	3489.404297	1194.267700	0.003239
306.949890	1200.211914	3510.134766	1193.004517	-0.312019
307.319702	1197.759766	3546.765869	1188.249146	-0.404878
307.689484	1193.375977	3583.545898	1187.877563	-0.230043
308.059265	1188.843628	3633.922852	1186.763062	-0.085092
308.429016	1189.215088	3703.395752	1198.057007	0.351682
308.798737	1191.444092	3776.807373	1200.583374	0.353501
309.168396	1191.221191	3856.682861	1205.487427	0.535226
309.538055	1188.546265	3903.790771	1195.159302	0.243552
309.907684	1185.648560	3950.378174	1189.066406	0.123623
310.277313	1187.803345	3985.821045	1189.066406	0.045141
310.646851	1196.496704	4020.371826	1185.499878	-0.389423
311.016388	1207.493530	4042.662842	1190.849731	-0.587048
311.385895	1204.372681	4044.520264	1195.233521	-0.321785
311.755371	1200.732056	4044.891602	1201.846558	0.039186
312.124817	1194.044800	4049.498291	1200.211792	0.215972
312.494232	1196.125244	4037.386963	1193.598877	-0.088917
312.863617	1191.890015	4016.136719	1198.577148	0.236776
313.232971	1184.236694	3975.195557	1203.406860	0.686867
313.602295	1190.032349	3947.629150	1197.982788	0.288310
313.971619	1188.694946	3945.325928	1195.233521	0.237194
314.340820	1193.450317	3949.709717	1188.249146	-0.188704
314.710083	1188.174927	3985.226563	1198.279907	0.361273
315.079285	1191.444214	4022.452148	1196.199463	0.167970
315.448486	1189.809570	4070.451904	1196.868164	0.245035
315.817596	1184.608276	4078.922607	1198.057007	0.464660
316.186707	1186.094360	4034.637939	1198.428589	0.433001
316.555786	1189.140747	3955.728516	1200.434692	0.408227
316.924866	1192.187134	3873.326904	1188.769287	-0.127477
317.293884	1192.261353	3826.218750	1185.945679	-0.239779
317.662872	1194.193359	3804.670898	1191.741333	-0.093930
318.031830	1193.970459	3821.017334	1202.738037	0.333743
