Jaz Data File
++++++++++++++++++++++++++++++++++++
Date: Fri Jun 04 16:44:55 2021
User: jaz
Dark Spectrum Present: Yes
Reference Spectrum Present: Yes
Processed Spectrum Present: Yes
Spectrometers: JAZA3586
Integration Time (usec): 60600 (JAZA3586)
Spectra Averaged: 10 (JAZA3586)
Boxcar Smoothing: 1 (JAZA3586)
Correct for Electrical Dark: No (JAZA3586)
Strobe/Lamp Enabled: Yes (JAZA3586)
Correct for Detector Non-linearity: No (JAZA3586)
Correct for Stray Light: No (JAZA3586)
Number of Pixels in Processed Spectrum: 2048
>>>>>Begin Processed Spectral Data<<<<<
W	D	R	S	P
191.335022	0.000000	0.000000	0.000000	0.000000
191.713211	232.493210	234.870911	232.418900	-3.125301
192.091385	473.456940	475.314545	463.648956	-527.990784
192.469528	711.374268	717.838623	704.092590	-112.643517
192.847641	721.033630	726.829285	714.717957	-108.972580
193.225739	724.451599	734.110840	725.714661	13.076199
193.603790	736.042725	744.959045	739.832214	42.500599
193.981842	747.039551	755.361511	750.754700	44.642712
194.359863	754.246887	760.488464	763.311829	145.234787
194.737854	757.367676	759.893982	761.825867	176.470734
195.115829	756.401672	756.401672	757.070496	0.000000
195.493774	757.367676	752.983826	749.417236	181.357468
195.871704	756.773254	751.646301	748.154114	168.114288
196.249603	758.556458	750.754700	753.355286	66.666664
196.627457	758.259277	756.847473	757.441895	57.896328
197.005310	753.949707	758.556458	755.361511	30.646421
197.383133	750.085999	758.927979	751.869324	20.168844
197.760910	746.222351	754.321228	750.234619	49.541042
198.138687	744.290344	752.092224	750.606018	80.950668
198.516449	742.952942	748.822754	746.593750	62.025974
198.894180	746.742371	747.782532	747.485352	71.429413
199.271866	757.590515	744.067444	750.160339	54.944439
199.649536	756.030212	737.231689	748.822937	38.339584
200.027191	751.794922	740.723877	741.987000	88.590759
200.404816	744.736145	748.005554	743.101563	-49.996265
200.782410	741.838379	768.958801	760.636902	69.315010
201.159988	745.404846	780.104309	768.290039	65.952583
201.537537	744.290344	791.249695	766.209656	46.677204
201.915070	754.989929	783.968018	756.773132	6.153626
202.292557	752.240723	779.212646	759.893860	28.374458
202.670029	753.355286	767.472839	760.414063	50.000000
203.047485	744.290283	769.850525	759.745300	60.465065
203.424911	742.729980	773.788574	759.819580	55.023739
203.802292	742.729980	777.800964	760.116882	49.576317
204.179688	738.940613	783.447937	756.921814	40.400543
204.557037	741.318298	781.070251	754.172607	32.336296
204.934357	736.488525	786.642883	752.983826	32.889069
205.311661	740.723816	781.887512	755.807312	36.642715
205.688934	734.853821	779.064148	760.488342	57.983109
206.066177	730.098572	777.503723	757.813477	58.463909
206.443390	726.309082	770.890808	757.219055	69.333282
206.820587	731.807556	764.352112	757.441895	78.766899
207.197769	741.021057	764.797913	758.407898	73.125061
207.574921	734.853943	775.200256	760.339783	63.167706
207.952042	723.931396	775.571777	751.274841	52.949734
208.329147	715.832458	773.862793	752.537903	63.252167
208.706223	748.822815	793.255859	766.804138	40.468357
209.083267	752.389343	799.794495	768.587341	34.169277
209.460297	758.407898	802.766602	771.410828	29.313141
209.837280	725.789001	784.711121	743.324402	29.760302
210.214264	728.909729	778.023743	743.027161	28.744204
210.591217	730.990234	770.296326	735.151062	10.585707
210.968124	737.974609	769.701843	748.376953	32.786797
211.345016	739.906494	774.234314	752.686584	37.229542
211.721893	734.333801	774.308655	763.683350	73.420029
212.098724	731.658875	761.825867	759.076660	90.886703
212.475555	731.213074	764.352112	761.454285	91.255547
212.852356	736.191406	768.215820	755.361511	59.860909
213.229126	740.872375	778.915466	754.023987	34.570301
213.605865	742.358459	775.125977	750.754700	25.623669
213.982590	733.888000	766.581238	745.850769	36.590958
214.359283	740.055176	761.231384	750.680420	50.175385
214.735931	732.476257	761.825745	744.959167	42.531952
215.112579	736.117004	777.355042	748.154114	29.189337
215.489197	729.132629	779.361267	747.336731	36.242474
215.865799	731.436035	777.726563	754.692688	50.240631
216.242355	737.454529	769.553284	755.658691	56.712986
216.618896	737.900330	765.020813	761.602966	87.397545
216.995407	740.055115	762.420227	758.482239	82.392273
217.371902	736.488586	764.426453	760.711243	86.701881
217.748367	732.104736	764.129150	754.841309	70.997620
218.124802	728.909668	767.695618	747.708313	48.467667
218.501236	728.612488	756.698914	743.101501	51.587246
218.877609	733.070618	759.150879	739.906494	26.210920
219.253983	733.442139	757.739197	750.085938	68.501289
219.630295	727.943665	767.770020	755.807312	69.962837
220.006592	731.138733	776.612000	755.658691	53.921700
220.382889	728.835266	775.348938	744.216064	33.067265
220.759140	729.578369	773.045593	743.770264	32.649647
221.135391	728.389587	763.386230	746.742371	52.441555
221.511581	737.454529	770.147705	753.726807	49.772705
221.887772	744.959167	774.011475	751.869141	23.784594
222.263931	743.547363	778.915466	755.732910	34.453491
222.640060	736.414307	778.023865	752.315125	38.214340
223.016159	731.733215	769.627502	754.544128	60.196178
223.392212	731.807434	767.770020	747.262512	42.975437
223.768265	734.556641	767.324219	751.720703	52.381237
224.144302	737.305908	770.221985	749.120117	35.891911
224.520294	737.528809	770.073425	756.030212	56.849354
224.896286	743.027161	768.810303	750.457520	28.818670
225.272217	737.603088	772.599792	752.017822	41.188831
225.648148	733.962219	774.160156	749.640137	39.001797
226.024048	726.011902	778.915466	753.875427	52.668522
226.399902	726.309082	781.887512	754.172607	50.133705
226.775772	725.045959	781.738953	752.686523	48.754814
227.151581	731.956055	776.834961	756.550293	54.801331
227.527374	728.538147	766.655518	759.150879	80.311760
227.903137	737.900391	761.825867	763.757629	108.074081
228.278870	741.912781	762.568848	764.575012	109.712227
228.654572	748.005554	771.187988	759.596680	49.999603
229.030273	743.844543	774.903076	750.903320	22.727335
229.405930	731.064453	774.085754	748.822815	41.278069
229.781555	726.829163	767.844299	756.624695	72.645210
230.157181	719.696106	767.027039	765.615234	97.017166
230.532761	719.250305	764.352051	767.175598	106.260391
230.908325	715.980957	772.079590	762.717468	83.311317
231.283859	726.234802	769.107422	765.689514	92.027763
231.659332	731.436035	769.776184	763.757629	84.302216
232.034821	740.055115	758.110657	762.197327	122.633881
232.410263	727.423645	765.763855	750.457520	60.077591
232.785690	735.151123	767.695740	748.154053	39.954163
233.161087	734.482422	775.571777	737.974609	8.499008
233.536469	742.730042	771.856689	744.959045	7.652799
233.911804	741.021057	777.577942	752.463623	31.300714
234.287140	733.442200	772.896912	758.556458	63.653381
234.662430	735.076843	772.228210	755.658691	55.399975
235.037704	734.036560	764.500732	750.977600	55.609718
235.412933	738.791992	771.485168	756.773193	54.999859
235.788162	732.179016	772.822693	764.500671	79.524437
236.163345	733.293640	773.342773	774.160095	102.040794
236.538513	734.854004	771.410889	775.125977	110.162483
236.913635	732.773438	770.221985	764.574951	84.920555
237.288742	726.160461	775.200378	751.051941	50.757587
237.663834	724.228699	776.537781	746.816650	43.181702
238.038879	732.847717	775.348877	751.051941	42.832298
238.413910	735.671204	776.760559	752.760925	41.591602
238.788910	740.426575	775.125977	750.085999	27.837437
239.163879	737.603027	783.224915	743.993164	14.006735
239.538834	730.247131	780.550049	748.525635	36.336864
239.913757	728.315247	779.435547	747.633972	37.790710
240.288651	731.138733	774.903015	751.497742	46.519691
240.663528	736.562805	773.639954	747.559631	29.659309
241.038361	731.138733	774.085754	752.909424	50.691971
241.413177	721.850891	773.416992	756.847473	67.867416
241.787979	715.906738	774.234375	754.023987	65.350235
242.162735	718.210144	772.302429	751.349121	61.263779
242.537476	720.810730	775.200195	753.058105	59.289745
242.912170	718.210144	773.491272	755.435791	67.338799
243.286865	722.965515	769.999023	757.813477	74.091774
243.661514	728.761047	764.797852	752.315125	65.361168
244.036148	734.631042	769.627625	753.281006	53.290813
244.410751	734.928223	773.565674	755.807312	54.038475
244.785339	725.120300	773.342773	755.658691	63.328133
245.159882	729.949951	773.491394	750.977539	48.293274
245.534378	730.990173	783.522217	748.376953	33.097473
245.908890	736.191406	790.952454	753.132385	30.936186
246.283356	727.200684	784.265198	764.946472	66.145813
246.657791	727.423645	782.184753	765.615234	69.742180
247.032196	734.333801	780.327209	772.153870	82.229324
247.406586	737.305969	782.704834	763.386169	57.446812
247.780960	731.361633	779.138367	764.203430	68.740150
248.155289	726.754883	781.887512	759.299500	59.029682
248.529602	721.330811	786.271423	762.866028	63.958771
248.903870	726.309082	782.779114	770.221985	77.763199
249.278122	724.971619	783.968018	765.095154	68.010139
249.652344	734.482361	783.893738	769.553284	70.977425
250.026550	730.618652	788.351807	764.500671	58.687283
250.400711	739.757874	787.014404	767.918640	59.591270
250.774857	740.426575	783.819336	760.339783	45.890621
251.148987	740.055115	782.556213	755.584412	36.538578
251.523071	732.030334	775.274597	749.045715	39.347141
251.897125	732.327637	788.500488	753.875427	38.359795
252.271164	729.801331	791.918396	753.503906	38.157913
252.645187	728.240967	800.314636	759.819641	43.814438
253.019165	721.405090	795.187744	752.760925	42.497570
253.393112	727.572266	799.348633	756.327393	40.062111
253.767044	731.361633	795.930725	753.132324	33.716892
254.140930	729.578430	793.627380	763.386047	52.784031
254.514801	727.126465	785.899902	760.191162	56.257893
254.888657	720.736389	788.426208	758.556458	55.872608
255.262466	724.674500	781.738953	751.423523	46.875107
255.636276	726.160461	787.608887	757.367676	50.786026
256.010010	731.956055	795.113464	761.528564	46.823502
256.383759	737.157227	798.605652	761.974426	40.387039
256.757446	739.609192	800.166016	758.184998	30.674999
257.131134	737.305908	796.153625	764.946533	46.969749
257.504791	735.596924	797.193848	761.751465	42.460793
257.878418	731.658875	797.268250	763.237549	48.131344
258.252014	727.795166	799.794495	759.002258	43.343590
258.625580	721.107910	799.794495	770.667786	62.983894
258.999115	723.782776	799.868835	766.061035	55.566368
259.372650	730.618652	795.039124	760.265442	46.020760
259.746124	735.522644	808.933777	758.853699	31.781357
260.119598	729.801331	816.215393	758.705078	33.447968
260.493042	733.590759	827.658020	763.088928	31.358593
260.866425	734.705322	827.137878	758.184998	25.401955
261.239838	731.510315	824.314270	767.324219	38.590923
261.613159	721.256531	819.707520	769.033203	48.528381
261.986511	723.114075	814.877930	771.856689	53.117443
262.359802	738.123230	817.181335	763.163269	31.672956
262.733063	738.271912	815.472351	760.785583	29.162621
263.106293	736.042786	811.682861	762.122986	34.479343
263.479523	731.510254	813.243347	768.735901	45.545380
263.852692	740.575195	809.528137	768.141541	39.978489
264.225861	737.454529	814.655090	764.054871	34.456150
264.598969	740.500977	809.008057	758.407898	26.138790
264.972076	731.584656	815.175232	751.051941	23.288851
265.345154	732.550476	817.404297	755.287109	26.795061
265.718201	727.274963	818.815918	758.184998	33.766346
266.091217	737.528809	825.949036	765.689514	31.848715
266.464203	741.095276	830.110046	758.407898	19.449156
266.837158	733.590759	832.339050	761.305725	28.066275
267.210114	723.559875	829.292664	759.373840	33.872147
267.583038	722.519714	821.342285	764.723633	42.706760
267.955902	730.470032	824.834473	765.169373	36.771629
268.328766	731.138855	823.274109	767.844299	39.838654
268.701569	734.928223	830.630127	760.414063	26.630442
269.074371	737.008728	832.041931	750.903320	14.620776
269.447144	741.318176	837.837463	748.971436	7.929254
269.819885	739.832214	847.794006	758.556458	17.343397
270.192596	734.631042	849.577332	770.519226	31.221699
270.565277	739.832214	855.595764	771.930969	27.727859
270.937927	737.900208	853.961182	768.215820	26.120419
271.310577	737.974609	863.992004	762.643127	19.575487
271.683136	735.968445	863.620422	769.924805	26.600731
272.055725	724.525818	877.589355	760.265442	23.349535
272.428284	729.652771	889.626465	758.556458	18.067774
272.800812	739.312073	895.199219	753.726807	9.246903
273.173279	753.652527	893.341614	771.782410	12.978740
273.545776	751.572021	885.316895	771.485168	14.888905
273.918152	736.785828	887.991882	774.011414	24.619110
274.290558	731.956116	880.190002	764.649231	22.055088
274.662964	730.395752	876.549133	765.838074	24.250086
275.035278	731.510315	877.812317	762.568848	21.229055
275.407593	729.950012	879.521301	765.318054	23.646278
275.779907	737.231628	885.688477	771.856628	23.323277
276.152161	738.049011	883.830872	769.627625	21.661552
276.524384	742.507141	889.552185	766.655457	16.422394
276.896606	730.618652	889.329285	761.082764	19.194752
277.268799	725.194519	889.849365	764.054871	23.601097
277.640930	718.061462	901.514954	769.181824	27.865570
278.013031	720.216309	912.883301	766.432556	23.987631
278.385162	723.931396	920.759338	766.581116	21.668530
278.757233	727.795166	916.375488	756.476013	15.208823
279.129272	725.268860	912.511719	758.184875	17.579317
279.501282	725.640442	916.895508	756.104492	15.928493
279.873230	722.296692	920.907898	761.974426	19.977591
280.245178	722.371094	927.149353	771.485168	23.984028
280.617126	726.903503	938.443359	772.971191	21.777309
280.988983	737.603088	945.279236	776.834900	18.890862
281.360870	748.154053	958.430847	769.479004	10.141372
281.732697	747.039551	971.359436	768.513000	9.572691
282.104492	746.816650	984.288147	766.135437	8.135202
282.476288	742.432800	986.145691	767.621399	10.335358
282.848053	738.271912	991.792786	766.729797	11.225066
283.219757	736.637207	999.371582	761.751526	9.558825
283.591461	735.448425	1004.424133	755.064270	7.292794
283.963135	734.036621	1000.634705	751.423523	6.521766
284.334747	730.618652	1007.024719	754.469910	8.629065
284.706360	733.962341	1021.811035	754.098328	6.995337
285.077942	738.197510	1034.368164	754.618469	5.544425
285.449524	736.785828	1040.015259	752.389343	5.145779
285.821014	736.785828	1047.073853	761.008484	7.806507
286.192535	740.278015	1058.888062	763.906250	7.416036
286.563995	743.770264	1065.055176	765.392334	6.729874
286.935425	736.265686	1069.439087	762.791748	7.961638
287.306824	735.076843	1064.312134	760.562683	7.740920
287.678223	730.172852	1065.575317	760.191162	8.949938
288.049561	726.977844	1063.717773	761.082764	10.127970
288.420898	721.776672	1065.278198	769.330383	13.843814
288.792145	728.686829	1067.804321	770.444885	12.313743
289.163452	738.569031	1068.621704	770.965027	9.815402
289.534668	729.504150	1076.275024	766.655457	10.713503
289.905914	723.857117	1090.243774	769.033203	12.330167
290.277039	716.426941	1115.952515	763.683350	11.828131
290.648193	727.349365	1135.196899	764.872253	9.200224
291.019318	735.225403	1150.874756	764.277832	6.989649
291.390381	731.584534	1153.401001	766.506897	8.279042
291.761475	727.497864	1157.487671	764.946533	8.709199
292.132507	721.405090	1147.754028	775.348877	12.652497
292.503510	730.098572	1143.890503	781.293152	12.372059
292.874481	738.569031	1145.450806	785.528320	11.541262
293.245422	736.488586	1145.079224	781.590332	11.038370
293.616364	735.448303	1150.429077	779.361145	10.581898
293.987213	725.045898	1164.175049	781.070129	12.758031
294.358093	726.234802	1189.289429	773.342712	10.173294
294.728943	727.423645	1212.992065	774.680176	9.732208
295.099731	728.538147	1231.121826	764.054932	7.066840
295.470490	731.435974	1243.307495	768.141602	7.170867
295.841248	724.748779	1259.356812	762.568848	7.074355
296.211975	725.863281	1269.907837	764.723572	7.142851
296.582642	719.398926	1292.941650	764.649231	7.889614
296.953308	719.993347	1321.845337	766.506836	7.728393
297.323883	725.714661	1338.489380	765.615234	6.511459
297.694519	725.714661	1352.904053	763.609070	6.041940
298.065063	733.665039	1352.458130	758.928040	4.082625
298.435608	726.977844	1351.863647	757.813477	4.934603
298.806122	733.590759	1329.572876	753.652527	3.366169
299.176575	731.658875	1305.721802	759.968262	4.931408
299.547028	732.773376	1285.734253	766.581238	6.113970
299.917450	734.036621	1284.173950	765.912537	5.794174
300.287872	734.333801	1278.675537	765.912415	5.801248
300.658234	739.386414	1277.783813	762.940369	4.374827
301.028564	727.349304	1273.845825	769.999084	7.804218
301.398865	722.296814	1280.235840	762.123047	7.138098
301.769135	720.290588	1286.477295	761.974426	7.362207
302.139374	731.064453	1286.180054	762.494568	5.661904
302.509583	732.030457	1279.344238	770.370605	7.005149
302.879791	735.002502	1280.533081	769.181824	6.265336
303.249939	728.686829	1287.369019	764.797913	6.463618
303.620087	734.556702	1289.078003	764.723633	5.440176
303.990173	728.612488	1289.375122	770.519226	7.473169
304.360260	732.922058	1287.814819	778.320984	8.181567
304.730286	725.343079	1291.009766	779.361145	9.549452
305.100281	724.822998	1305.201538	779.732727	9.461020
305.470276	723.931335	1309.511108	772.153870	8.235007
305.840179	730.024231	1325.932007	772.228271	7.082311
306.210144	730.990234	1327.417969	770.296387	6.590262
306.579987	729.875671	1335.294067	775.348877	7.511038
306.949890	730.470032	1344.804810	778.989746	7.897927
307.319702	739.534973	1354.315796	782.110535	6.925323
307.689484	733.888000	1367.615845	775.497498	6.565831
308.059265	740.723816	1384.631226	769.479004	4.465734
308.429016	738.866211	1411.157227	758.630798	2.939886
308.798737	744.141785	1441.101196	761.231445	2.452031
309.168396	736.339905	1464.878296	768.513000	4.416115
309.538055	732.030457	1477.732544	772.153809	5.380614
309.907684	731.510315	1496.605469	773.416992	5.477316
310.277313	733.144958	1502.326660	769.033203	4.665770
310.646851	737.603088	1507.007813	778.395325	5.301792
311.016388	739.609314	1514.586548	777.577942	4.899322
311.385895	738.197510	1523.057129	769.033142	3.928809
311.755371	734.408142	1534.574097	759.522461	3.138639
312.124817	736.339905	1533.608032	761.677246	3.178020
312.494232	733.887939	1535.540039	766.432556	4.059693
312.863617	730.172852	1531.750610	766.209656	4.495734
313.232971	720.662109	1521.199585	757.070374	4.547977
313.602295	720.067688	1518.524780	748.599854	3.573412
313.971619	720.067688	1534.722656	748.154053	3.447639
314.340820	721.702332	1544.902222	756.624573	4.242255
314.710083	719.770508	1562.660522	764.054871	5.253872
315.079285	718.804504	1563.849487	773.862793	6.515427
315.448486	724.748779	1585.694336	770.221985	5.281775
315.817596	727.052063	1582.053589	777.355042	5.883379
316.186707	731.287415	1573.731812	771.410828	4.762737
316.555786	731.807556	1546.908203	770.890808	4.794899
316.924866	732.847717	1531.230469	767.175598	4.299677
317.293884	735.819824	1529.521484	765.243713	3.707172
317.662872	734.259460	1542.078735	769.924805	4.415015
318.031830	736.934387	1548.468750	768.141541	3.845451
318.400757	735.522644	1553.892700	772.748230	4.548748
318.769684	734.482422	1564.443726	768.141418	4.055490
319.138550	724.525818	1577.075195	772.005188	5.569105
319.507416	716.278259	1599.366089	773.268372	6.453505
319.876190	720.662109	1605.013062	774.011414	6.032594
320.244995	734.408142	1605.235962	772.971191	4.428321
320.613770	737.380188	1582.870972	768.141541	3.638283
320.982483	738.197510	1565.484009	769.033142	3.727322
321.351166	732.921936	1557.087891	769.999084	4.498748
321.719818	738.420410	1548.320190	771.930969	4.137618
322.088440	736.339905	1559.465454	773.342712	4.495403
322.457062	735.225403	1573.731567	771.856628	4.368629
322.825623	736.339905	1601.817993	771.930969	4.112301
323.194183	733.367859	1620.913940	774.011475	4.579325
323.562653	734.259521	1658.065308	774.903076	4.399578
323.931183	726.532043	1690.758423	772.896912	4.808505
324.299591	725.120300	1739.055176	762.791687	3.715365
324.668060	721.776611	1760.974609	756.253113	3.317607
325.036407	717.541321	1786.980469	762.717468	4.224284
