Jaz Data File
++++++++++++++++++++++++++++++++++++
Date: Fri Jun 04 16:23:34 2021
User: jaz
Dark Spectrum Present: Yes
Reference Spectrum Present: Yes
Processed Spectrum Present: Yes
Spectrometers: JAZA3586
Integration Time (usec): 69400 (JAZA3586)
Spectra Averaged: 10 (JAZA3586)
Boxcar Smoothing: 1 (JAZA3586)
Correct for Electrical Dark: No (JAZA3586)
Strobe/Lamp Enabled: Yes (JAZA3586)
Correct for Detector Non-linearity: No (JAZA3586)
Correct for Stray Light: No (JAZA3586)
Number of Pixels in Processed Spectrum: 2048
>>>>>Begin Processed Spectral Data<<<<<
W	D	R	S	P
191.335022	0.000000	0.000000	0.000000	0.000000
191.713211	293.792969	294.833221	293.198578	-57.139084
192.091385	587.957458	584.167969	590.558044	-68.626282
192.469528	881.453125	885.093994	891.261169	269.387451
192.847641	891.186829	890.815247	895.645020	-1199.786499
193.225739	898.022644	906.567383	906.567566	100.002144
193.603790	912.363098	906.567444	911.843018	8.973630
193.981842	916.672668	912.140137	922.691162	-132.784363
194.359863	932.350586	910.877014	926.852112	25.605774
194.737854	939.780823	918.158752	933.910889	27.147882
195.115829	942.901550	925.737610	933.316467	55.844303
195.493774	937.403137	934.802551	932.201965	200.000000
195.871704	935.842773	935.842773	925.068848	0.000000
196.249603	939.260681	936.139954	931.681824	242.855469
196.627457	937.403076	933.539368	926.183411	290.385925
197.005310	930.790222	937.328857	920.387756	-159.092316
197.383133	928.486816	933.836609	919.273254	-172.222794
197.760910	936.957336	928.412415	925.440369	134.781433
198.138687	941.712708	922.096741	937.403137	21.969706
198.516449	933.687988	921.948181	929.972839	31.645741
198.894180	922.022400	928.783997	925.589050	52.748642
199.271866	924.177246	933.316589	914.294983	-108.128807
199.649536	925.960449	932.796387	915.929688	-146.735718
200.027191	931.384583	941.638367	914.443604	-165.216843
200.404816	920.610657	941.712708	926.926453	29.929773
200.782410	918.976074	952.635254	927.372253	24.944693
201.159988	916.598328	958.653748	927.446594	25.795170
201.537537	922.468262	975.297546	924.177246	3.234919
201.915070	919.570496	970.096252	919.050293	-1.029579
202.292557	914.146423	967.049866	921.205078	13.342525
202.670029	918.307373	959.768250	913.477600	-11.648989
203.047485	921.502380	968.833191	912.288818	-19.466309
203.424911	929.304199	963.706238	906.641785	-65.875206
203.802292	923.137024	964.300598	909.390930	-33.393829
204.179688	919.644775	962.517395	909.836731	-22.877176
204.557037	910.579895	958.579407	916.003906	11.300138
204.934357	901.960754	958.059265	907.979309	10.728546
205.311661	903.818298	952.189270	908.499451	9.677607
205.688934	904.041077	957.687744	903.743958	-0.553845
206.066177	904.635559	950.480286	908.870911	9.238470
206.443390	905.229980	951.817871	904.635681	-1.275652
206.820587	912.288757	947.211121	901.886475	-29.786880
207.197769	914.072083	946.691101	907.830566	-19.134592
207.574921	910.728455	943.273132	905.081360	-17.351822
207.952042	899.657227	943.495911	903.818176	9.491503
208.329147	903.892578	947.434021	899.211487	-10.750887
208.706223	927.520813	970.690735	927.743835	0.516615
209.083267	932.350525	975.446106	931.904724	-1.034447
209.460297	931.533203	977.972412	930.864441	-1.440081
209.837280	908.870850	960.288391	905.452942	-6.647357
210.214264	904.041199	953.972656	903.446716	-1.190597
210.591217	904.784180	957.687805	898.468445	-11.938190
210.968124	906.493164	965.786804	905.527283	-1.628980
211.345016	914.592102	971.656738	908.499451	-10.676755
211.721893	912.214539	967.867188	913.106201	1.602193
212.098724	910.431213	956.870422	914.666504	9.120074
212.475555	907.830750	965.341003	913.626282	10.077390
212.852356	911.471497	965.192383	911.768738	0.553307
213.229126	910.579895	970.319275	906.493164	-6.840933
213.605865	904.115540	957.910645	905.675842	2.900455
213.982590	898.914307	955.830139	898.617004	-0.522354
214.359283	896.685242	957.019043	894.679016	-3.325210
214.735931	893.787415	962.666016	889.997986	-5.501605
215.112579	901.812195	967.198547	890.815247	-16.818415
215.489197	904.561340	963.037598	887.917480	-28.462595
215.865799	914.740906	957.762024	888.809082	-60.276962
216.242355	905.304382	949.737366	898.542786	-15.217517
216.618896	912.660339	940.523865	901.663574	-39.466526
216.995407	904.709961	942.604309	903.446777	-3.333435
217.371902	903.000977	942.752930	901.069031	-4.860002
217.748367	894.158936	945.279236	904.858582	20.930326
218.124802	897.279602	941.787048	904.784241	16.861536
218.501236	902.183655	947.359680	902.257996	0.164558
218.877609	904.784363	952.337952	898.914368	-12.343958
219.253983	894.158997	958.579407	893.861755	-0.461408
219.630295	885.094055	948.325623	895.422058	16.333618
220.006592	882.419128	938.666260	898.840027	29.194197
220.382889	895.867920	938.517639	895.867920	0.000000
220.759140	907.607727	949.142883	894.456116	-31.663807
221.135391	918.678894	957.019043	894.307556	-63.566101
221.511581	920.387878	953.675476	896.313721	-72.321701
221.887772	917.564270	953.303894	899.657410	-50.103661
222.263931	914.517883	965.192383	895.719299	-37.096733
222.640060	916.598389	967.792969	901.589172	-29.317980
223.016159	911.694336	970.467834	896.759583	-25.410694
223.392212	910.877136	960.437012	899.062927	-23.838253
223.768265	904.338379	954.567078	907.681946	6.656686
224.144302	910.951355	953.006653	910.802734	-0.353393
224.520294	904.932800	948.994385	907.384827	5.564998
224.896286	907.161926	952.783752	895.124817	-26.384541
225.272217	901.812073	957.019043	895.422058	-11.574652
225.648148	900.846191	964.820801	904.635559	5.923237
226.024048	893.564636	964.152161	904.264160	15.157811
226.399902	897.205383	953.675476	903.149597	10.526304
226.775772	900.474609	955.087219	895.496399	-9.115497
227.151581	901.737793	961.031311	902.926758	2.005219
227.527374	896.016602	968.387390	907.236267	15.503031
227.903137	900.549072	966.678406	914.220703	20.674080
228.278870	899.657410	965.117981	909.242371	14.642343
228.654572	907.830566	959.471008	904.264099	-6.906345
229.030273	900.697571	955.607361	902.034973	2.435636
229.405930	904.784180	953.006775	910.876953	12.634686
229.781555	904.709961	957.910706	912.957520	15.502712
230.157181	907.830627	960.362793	905.750183	-3.960325
230.532761	909.613953	962.145996	897.651184	-22.772327
230.908325	900.326111	962.145996	905.081482	7.692300
231.283859	901.217712	961.848816	915.781067	24.019609
231.659332	899.880188	961.254395	921.205139	34.745789
232.034821	907.013245	962.443176	911.843018	8.713294
232.410263	909.613831	956.499023	907.459167	-4.595615
232.785690	913.254700	956.053162	904.561340	-20.312317
233.161087	917.861511	959.694031	905.229980	-30.195482
233.536469	914.220703	965.786804	911.025635	-6.196064
233.911804	910.802795	969.427673	900.771973	-17.110182
234.287140	908.202209	961.105713	893.861816	-27.106699
234.662430	914.072083	963.334778	886.059998	-56.862671
235.037704	919.793457	965.192383	897.576843	-48.936432
235.412933	911.991638	968.387390	899.285828	-22.529730
235.788162	904.635681	957.316223	899.805969	-9.167924
236.163345	904.338379	953.155334	898.022705	-12.937459
236.538513	912.734619	947.879822	897.131042	-44.397457
236.913635	914.369324	957.167664	890.963867	-54.687767
237.288742	915.781006	959.842590	892.449951	-52.951012
237.663834	916.672607	968.610291	900.846191	-30.471933
238.038879	920.164856	971.359436	904.784241	-30.043444
238.413910	916.969910	976.114807	902.926575	-23.743950
238.788910	907.161926	977.229309	897.948425	-13.149487
239.163879	899.211487	982.133362	898.617126	-0.716771
239.538834	894.827637	970.319275	898.765686	5.216537
239.913757	900.697571	968.610352	904.189758	5.142165
240.288651	899.360168	963.780579	911.397156	18.685053
240.663528	905.155762	969.056091	905.155762	0.000000
241.038361	902.034973	968.833191	904.784180	4.115688
241.413177	910.059753	969.278992	901.440613	-14.554629
241.787979	903.669739	968.164368	898.319824	-8.295132
242.162735	899.360168	973.216980	897.576843	-2.414571
242.537476	902.406555	972.251038	895.347839	-10.106333
242.912170	908.647949	984.659485	907.830627	-1.075260
243.286865	919.273254	976.932129	909.911133	-16.237087
243.661514	915.781006	980.201477	912.808899	-4.613606
244.036148	912.437317	977.526611	905.601563	-10.502118
244.410751	912.363098	987.557434	903.223877	-12.154135
244.785339	906.938965	982.876404	902.406555	-5.968610
245.159882	906.716125	977.972412	899.880188	-9.593451
245.534378	907.830750	978.418274	905.601563	-3.158047
245.908890	916.449768	987.483215	906.790344	-13.598416
246.283356	919.199036	994.616211	911.619934	-10.049570
246.657791	914.072083	992.981506	902.480774	-14.689384
247.032196	904.709961	999.000183	893.118652	-12.293224
247.406586	901.960754	998.480042	897.502625	-4.618901
247.780960	907.979248	1004.795715	899.211609	-9.055938
248.155289	907.310547	996.919617	906.270325	-1.160845
248.529602	908.053528	998.479980	899.508789	-9.449380
248.903870	897.725403	995.730774	903.223877	5.610380
249.278122	903.075256	986.591553	900.548889	-3.024999
249.652344	907.533447	987.706055	905.304382	-2.780332
250.026550	913.180481	984.585388	908.722351	-6.243450
250.400711	913.106140	991.867004	914.146301	1.320657
250.774857	912.734619	988.820557	914.666504	2.539083
251.148987	911.025635	992.758606	911.397156	0.454555
251.523071	910.059753	999.074402	909.019470	-1.168665
251.897125	906.938965	1004.572754	909.762451	2.891915
252.271164	906.047424	1003.458252	910.579895	4.652944
252.645187	904.338379	1006.058838	910.208313	5.770652
253.019165	888.809082	997.439758	907.533386	17.236664
253.393112	892.152771	1005.018616	904.041199	10.533237
253.767044	890.443787	994.170410	906.641846	15.616106
254.140930	900.251770	996.770996	908.945251	9.006994
254.514801	895.124817	983.619385	908.870911	15.533263
254.888657	897.056702	988.894836	907.830627	11.731429
255.262466	904.189758	989.935059	908.647949	5.199341
255.636276	907.979248	996.919617	910.356934	2.673348
256.010010	915.038025	999.222961	908.350769	-7.943530
256.383759	919.347595	996.325134	906.716125	-16.409292
256.757446	929.006897	995.284851	902.926697	-39.349735
257.131134	931.013123	997.811218	907.384949	-35.372524
257.504791	924.994568	1011.111389	908.127869	-19.585836
257.878418	912.437500	1021.885254	907.607727	-4.412857
258.252014	907.533386	1027.978149	903.669678	-3.207868
258.625580	915.781067	1026.714966	903.892578	-10.716732
258.999115	919.198914	1020.622131	909.836853	-9.230688
259.372650	909.985352	1024.337280	909.316711	-0.584721
259.746124	899.657410	1035.334106	908.053528	6.188327
260.119598	897.428284	1050.640503	906.790344	6.110518
260.493042	900.697571	1066.764160	907.384827	4.026852
260.866425	906.344666	1075.829102	909.168152	1.665927
261.239838	903.818359	1076.720703	901.812195	-1.160288
261.613159	904.264160	1072.262573	900.623291	-2.167204
261.986511	900.028809	1051.532104	895.793640	-2.795430
262.359802	900.846191	1043.061646	904.561279	2.612295
262.733063	900.251709	1032.139038	909.985352	7.380271
263.106293	898.171326	1034.368164	907.756348	7.037624
263.479523	899.360168	1038.454712	908.276428	6.410215
263.852692	898.542786	1041.278320	905.230042	4.685067
264.225861	897.056824	1049.600220	912.065918	9.839230
264.598969	900.400391	1045.439331	913.329041	8.913917
264.972076	906.270264	1040.981079	908.573730	1.709935
265.345154	916.672668	1039.718018	903.446777	-10.748794
265.718201	919.496155	1050.789063	895.645020	-18.166355
266.091217	919.496155	1056.064575	903.892578	-11.425465
266.464203	917.564270	1062.751831	912.511719	-3.480017
266.837158	918.307312	1057.699219	920.313477	1.439226
267.210114	916.449768	1061.711548	918.530273	1.432245
267.583038	910.579834	1063.271973	913.329102	1.800530
267.955902	905.155762	1068.621704	910.059753	3.000008
268.328766	903.223877	1076.126343	899.137207	-2.363569
268.701569	899.583008	1080.361694	895.942139	-2.013993
269.074371	896.239441	1088.906372	900.103210	2.005414
269.447144	896.685242	1089.649414	908.350769	6.045437
269.819885	906.344543	1091.358276	911.397156	2.730939
270.192596	910.208252	1093.438843	904.487000	-3.122433
270.565277	910.579834	1099.977417	899.508728	-5.845431
270.937927	903.223816	1103.246704	894.233215	-4.494786
271.310577	904.041199	1111.197144	895.050598	-4.340016
271.683136	907.607666	1121.673828	901.069092	-3.054464
272.055725	912.065857	1136.162964	905.452942	-2.950915
272.428284	907.087585	1147.085449	910.431335	1.393242
272.800812	910.951355	1152.360962	915.409607	1.846758
273.173279	905.973145	1143.741821	918.753174	5.374984
273.545776	909.093811	1131.704712	910.951416	0.834463
273.918152	901.291992	1120.782227	903.521179	1.015620
274.290558	898.765686	1120.633667	900.771973	0.904270
274.662964	899.583008	1129.772949	905.750183	2.679168
275.035278	900.920471	1138.169067	908.796570	3.319766
275.407593	900.771973	1137.351685	903.446777	1.130615
275.779907	901.440613	1135.419800	898.914307	-1.079714
276.152161	905.675964	1131.035889	896.388000	-4.121391
276.524384	911.025696	1137.797485	896.016541	-6.618617
276.896606	912.660339	1140.398071	896.462341	-7.112566
277.268799	904.189758	1152.286499	898.914307	-2.126369
277.640930	899.805969	1162.911865	901.291992	0.564800
278.013031	894.456116	1168.113159	901.812195	2.688065
278.385162	904.487061	1167.518677	900.325989	-1.581966
278.757233	911.917297	1164.992310	909.168030	-1.086345
279.129272	915.186584	1166.181152	916.375427	0.473653
279.501282	911.991516	1176.880737	916.301086	1.626933
279.873230	906.938965	1180.744507	909.688171	1.004073
280.245178	909.762512	1184.682617	900.771790	-3.270304
280.617126	910.134033	1190.032349	901.291992	-3.159019
280.988983	909.316711	1208.830933	899.211487	-3.373871
281.360870	912.288818	1227.852417	906.344543	-1.883701
281.732697	910.208313	1237.288940	907.459167	-0.840510
282.104492	913.551941	1248.062866	915.186584	0.488667
282.476288	906.790344	1253.189575	910.208313	0.986714
282.848053	904.487000	1259.059570	908.499329	1.131596
283.219757	909.688232	1261.585938	905.675842	-1.140215
283.591461	911.620117	1264.409302	906.195984	-1.537500
283.963135	914.889404	1262.180298	903.075256	-3.401802
284.334747	911.025635	1262.106079	903.966980	-2.010552
284.706360	916.375488	1267.158691	903.743958	-3.600951
285.077942	918.827454	1277.189453	903.000977	-4.416338
285.449524	921.353821	1289.300903	896.611023	-6.724554
285.821014	913.849182	1300.520508	894.976318	-4.880854
286.192535	908.425049	1308.173706	894.456116	-3.494429
286.563995	904.338379	1315.381104	894.084656	-2.494564
286.935425	911.620117	1322.439819	900.920471	-2.604463
287.306824	915.038025	1333.882446	907.904968	-1.703032
287.678223	913.180420	1323.851563	913.849182	0.162846
288.049561	909.168152	1322.885620	910.579834	0.341219
288.420898	908.276428	1316.867188	901.737793	-1.600290
288.792145	909.762512	1326.377808	899.954590	-2.354192
289.163452	906.790344	1326.674927	893.861755	-3.079082
289.534668	903.000977	1333.956665	901.812195	-0.275848
289.905914	902.183655	1341.758423	895.942200	-1.419885
290.277039	905.007141	1353.647095	907.607849	0.579687
290.648193	912.660339	1375.566406	907.756348	-1.059392
291.019318	918.307312	1398.525879	909.985352	-1.732953
291.390381	920.759277	1406.847656	902.332214	-3.790887
291.761475	922.914124	1413.163452	888.586182	-7.002140
292.132507	922.171082	1399.491821	891.186829	-6.491286
292.503510	919.124695	1396.222290	898.096985	-4.407423
292.874481	919.347595	1386.637329	916.747009	-0.556525
293.245422	913.626282	1393.993286	917.564270	0.819787
293.616364	909.614014	1401.572266	917.341492	1.570759
293.987213	902.926758	1414.649414	911.843018	1.742401
294.358093	900.771912	1434.934082	910.059753	1.738768
294.728943	901.440613	1463.614868	898.394226	-0.541894
295.099731	899.285828	1490.215454	897.874084	-0.238902
295.470490	899.508728	1506.859253	905.452942	0.978712
295.841248	901.143372	1520.530884	915.335144	2.291259
296.211975	901.514893	1532.642212	919.644775	2.872619
296.582642	902.109375	1546.611206	918.753113	2.582419
296.953308	907.979248	1574.920410	921.427979	2.016479
297.323883	912.363098	1587.997681	911.694336	-0.098983
297.694519	914.369324	1606.424805	908.425049	-0.858930
298.065063	912.734680	1599.514648	908.796631	-0.573408
298.435608	909.391052	1590.375488	914.740906	0.785606
298.806122	912.363220	1570.908203	904.932922	-1.128290
299.176575	914.443604	1551.515137	899.434509	-2.355951
299.547028	909.019531	1545.199341	893.638855	-2.417662
299.917450	904.709961	1535.837280	905.527283	0.129502
300.287872	897.651184	1527.441040	901.960693	0.684277
300.658234	901.291992	1515.849731	903.298157	0.326440
301.028564	907.459167	1514.809570	892.078430	-2.532432
301.398865	908.796570	1514.809570	892.301453	-2.721908
301.769135	915.335266	1519.193359	888.511902	-4.441998
302.139374	915.112366	1518.673340	897.353943	-2.942275
302.509583	912.883301	1517.632935	903.595398	-1.535826
302.879791	908.796570	1510.797241	906.493164	-0.382625
303.249939	908.276367	1508.791016	900.846191	-1.237301
303.620087	911.471375	1501.360840	898.691406	-2.166502
303.990173	912.288757	1502.029663	903.075256	-1.562296
304.360260	912.437439	1502.178223	909.911133	-0.428376
304.730286	906.864746	1509.756958	912.288818	0.899675
305.100281	909.688232	1513.843750	904.338440	-0.885499
305.470276	912.065918	1514.438110	897.502625	-2.417657
305.840179	918.827393	1525.880859	884.722473	-5.618108
306.210144	912.065918	1524.469116	890.146667	-3.579219
306.579987	905.304260	1533.979614	894.307556	-1.749186
306.949890	897.651184	1540.295410	904.264160	1.029026
307.319702	904.338379	1560.282837	899.954590	-0.668317
307.689484	906.716125	1572.171387	904.338379	-0.357311
308.059265	912.883301	1581.830688	898.988586	-2.077101
308.429016	907.310547	1601.669556	905.378662	-0.278226
308.798737	909.242432	1626.338013	900.474670	-1.222677
309.168396	908.499329	1652.938354	900.103210	-1.127845
309.538055	911.099915	1673.074341	900.103210	-1.443185
309.907684	906.938965	1683.996948	894.753418	-1.568164
310.277313	905.155762	1692.318726	899.583008	-0.707954
310.646851	904.115417	1699.674683	898.840027	-0.663105
311.016388	906.938965	1717.432983	906.567566	-0.045824
311.385895	913.923523	1729.024292	910.877014	-0.373759
311.755371	911.545837	1736.826050	911.842957	0.036002
312.124817	904.487061	1736.826050	917.415710	1.553291
312.494232	900.251770	1735.117188	910.282654	1.201497
312.863617	901.960754	1725.234863	907.161865	0.631759
313.232971	913.477600	1723.451660	909.242371	-0.522885
313.602295	916.449707	1721.742798	919.050293	0.322937
313.971619	918.530273	1723.897461	916.821289	-0.212199
314.340820	909.391052	1714.535278	907.384827	-0.249176
314.710083	905.304382	1725.829224	897.056824	-1.005157
315.079285	906.716125	1741.358765	906.195984	-0.062319
315.448486	909.613953	1760.157227	907.013367	-0.305756
315.817596	908.573669	1764.764038	911.322937	0.321105
316.186707	907.533386	1754.138672	910.654114	0.368617
316.555786	903.818298	1737.643555	908.276367	0.534653
316.924866	900.920471	1716.913086	909.465332	1.047174
317.293884	893.267395	1705.916138	904.338379	1.362333
317.662872	896.165222	1710.300171	909.019531	1.578892
318.031830	900.846191	1710.597168	897.874023	-0.367047
318.400757	910.802734	1721.445435	901.589172	-1.136575
318.769684	912.660339	1727.166626	898.765686	-1.705899
319.138550	909.019470	1740.541382	903.743958	-0.634441
319.507416	909.539551	1747.228516	899.211609	-1.232909
319.876190	907.087585	1741.953125	895.867920	-1.343889
320.244995	909.465271	1742.324585	902.183594	-0.874299
320.613770	901.143372	1735.934570	903.223877	0.249225
320.982483	904.264099	1738.237793	911.397156	0.855310
321.351166	910.282654	1725.309082	903.446777	-0.838731
321.719818	906.567566	1720.628296	902.332214	-0.520275
322.088440	904.189941	1733.259399	893.118652	-1.335387
322.457062	901.886414	1757.928101	894.679016	-0.841945
322.825623	908.053528	1785.345703	897.576843	-1.194207
323.194183	908.499329	1798.571777	904.264160	-0.475823
323.562653	904.412781	1826.138062	909.093811	0.507855
323.931183	905.973145	1854.521606	903.669678	-0.242841
