Jaz Data File
++++++++++++++++++++++++++++++++++++
Date: Fri Jun 04 16:23:46 2021
User: jaz
Dark Spectrum Present: Yes
Reference Spectrum Present: Yes
Processed Spectrum Present: Yes
Spectrometers: JAZA3586
Integration Time (usec): 69400 (JAZA3586)
Spectra Averaged: 10 (JAZA3586)
Boxcar Smoothing: 1 (JAZA3586)
Correct for Electrical Dark: No (JAZA3586)
Strobe/Lamp Enabled: Yes (JAZA3586)
Correct for Detector Non-linearity: No (JAZA3586)
Correct for Stray Light: No (JAZA3586)
Number of Pixels in Processed Spectrum: 2048
>>>>>Begin Processed Spectral Data<<<<<
W	D	R	S	P
191.335022	0.000000	0.000000	0.000000	0.000000
191.713211	293.792969	294.833221	296.096344	221.424591
192.091385	587.957458	584.167969	586.545715	37.254177
192.469528	881.453125	885.093994	882.567688	30.612553
192.847641	891.186829	890.815247	889.997986	319.940857
193.225739	898.022644	906.567383	903.521057	64.348518
193.603790	912.363098	906.567444	911.991516	6.411390
193.981842	916.672668	912.140137	912.734619	86.884094
194.359863	932.350586	910.877014	913.626221	87.197258
194.737854	939.780823	918.158752	922.171082	81.443359
195.115829	942.901550	925.737610	930.344299	73.160652
195.493774	937.403137	934.802551	930.121521	279.999054
195.871704	935.842773	935.842773	929.155518	0.000000
196.249603	939.260681	936.139954	924.548767	471.425781
196.627457	937.403076	933.539368	926.332031	286.539337
197.005310	930.790222	937.328857	925.217529	-85.227158
197.383133	928.486816	933.836609	927.075134	-26.387606
197.760910	936.957336	928.412415	933.762268	37.391430
198.138687	941.712708	922.096741	931.979004	49.621330
198.516449	933.687988	921.948181	930.864502	24.050533
198.894180	922.022400	928.783997	924.623047	38.462025
199.271866	924.177246	933.316589	917.638672	-71.543152
199.649536	925.960449	932.796387	917.935791	-117.389282
200.027191	931.384583	941.638367	920.313538	-107.970329
200.404816	920.610657	941.712708	926.629211	28.521183
200.782410	918.976074	952.635254	924.623047	16.776917
201.159988	916.598328	958.653748	922.393982	13.780993
201.537537	922.468262	975.297546	917.564270	-9.282715
201.915070	919.570496	970.096252	916.969910	-5.147050
202.292557	914.146423	967.049866	910.951355	-6.039434
202.670029	918.307373	959.768250	915.186523	-7.527215
203.047485	921.502380	968.833191	913.997742	-15.855716
203.424911	929.304199	963.706238	918.678894	-30.885685
203.802292	923.137024	964.300598	910.208313	-31.408134
204.179688	919.644775	962.517395	904.041199	-36.395203
204.557037	910.579895	958.579407	902.332214	-17.182842
204.934357	901.960754	958.059265	909.836853	14.039764
205.311661	903.818298	952.189270	908.425110	9.523918
205.688934	904.041077	957.687744	910.059753	11.219107
206.066177	904.635559	950.480286	911.545837	15.073224
206.443390	905.229980	951.817871	915.855286	22.807011
206.820587	912.288757	947.211121	914.592224	6.595965
207.197769	914.072083	946.691101	913.552002	-1.594409
207.574921	910.728455	943.273132	908.276550	-7.533964
207.952042	899.657227	943.495911	904.561340	11.186727
208.329147	903.892578	947.434021	906.939026	6.996663
208.706223	927.520813	970.690735	934.133789	15.318480
209.083267	932.350525	975.446106	936.957336	10.689754
209.460297	931.533203	977.972412	928.115234	-7.360093
209.837280	908.870850	960.288391	907.682068	-2.312016
210.214264	904.041199	953.972656	911.694336	15.327286
210.591217	904.784180	957.687805	913.031799	15.589895
210.968124	906.493164	965.786804	911.620117	8.646717
211.345016	914.592102	971.656738	905.898743	-15.234233
211.721893	912.214539	967.867188	904.115540	-14.552765
212.098724	910.431213	956.870422	907.533447	-6.239913
212.475555	907.830750	965.341003	910.134033	4.004997
212.852356	911.471497	965.192383	914.517883	5.670768
213.229126	910.579895	970.319275	909.688171	-1.492690
213.605865	904.115540	957.910645	906.195984	3.867349
213.982590	898.914307	955.830139	901.143372	3.916423
214.359283	896.685242	957.019043	903.669739	11.576425
214.735931	893.787415	962.666016	907.830627	20.388353
215.112579	901.812195	967.198547	909.539612	11.818089
215.489197	904.561340	963.037598	903.372498	-2.033035
215.865799	914.740906	957.762024	895.942200	-43.696461
216.242355	905.304382	949.737366	896.833801	-19.063723
216.618896	912.660339	940.523865	900.846191	-42.400047
216.995407	904.709961	942.604309	903.892578	-2.157005
217.371902	903.000977	942.752930	908.722351	14.392688
217.748367	894.158936	945.279236	914.443604	39.680260
218.124802	897.279602	941.787048	916.747009	43.739662
218.501236	902.183655	947.359680	908.350769	13.651299
218.877609	904.784363	952.337952	905.007141	0.468478
219.253983	894.158997	958.579407	906.270264	18.800358
219.630295	885.094055	948.325623	910.728455	40.540508
220.006592	882.419128	938.666260	909.465332	48.084591
220.382889	895.867920	938.517639	904.932861	21.254398
220.759140	907.607727	949.142883	904.041199	-8.586770
221.135391	918.678894	957.019043	905.229980	-35.077885
221.511581	920.387878	953.675476	905.007141	-46.205608
221.887772	917.564270	953.303894	905.973083	-32.432312
222.263931	914.517883	965.192383	904.709961	-19.354750
222.640060	916.598389	967.792969	909.242371	-14.368744
223.016159	911.694336	970.467834	906.567566	-8.722928
223.392212	910.877136	960.437012	906.939026	-7.946167
223.768265	904.338379	954.567078	906.864746	5.029728
224.144302	910.951355	953.006653	905.824524	-12.190690
224.520294	904.932800	948.994385	908.796631	8.769159
224.896286	907.161926	952.783752	911.100098	8.632209
225.272217	901.812073	957.019043	910.431335	15.612635
225.648148	900.846191	964.820801	902.035095	1.858400
226.024048	893.564636	964.152161	894.158997	0.842019
226.399902	897.205383	953.675476	903.446838	11.052673
226.775772	900.474609	955.087219	909.093811	15.782438
227.151581	901.737793	961.031311	908.573730	11.528979
227.527374	896.016602	968.387390	901.812195	8.008194
227.903137	900.549072	966.678406	902.778076	3.370673
228.278870	899.657410	965.117981	905.898743	9.534492
228.654572	907.830566	959.471008	904.338379	-6.762505
229.030273	900.697571	955.607361	900.697571	0.000000
229.405930	904.784180	953.006775	899.285828	-11.402024
229.781555	904.709961	957.910706	899.360168	-10.055861
230.157181	907.830627	960.362793	897.279602	-20.084887
230.532761	909.613953	962.145996	898.394226	-21.357872
230.908325	900.326111	962.145996	900.325989	-0.000197
231.283859	901.217712	961.848816	907.904968	11.029415
231.659332	899.880188	961.254395	900.846191	1.573957
232.034821	907.013245	962.443176	895.422180	-20.911201
232.410263	909.613831	956.499023	896.611023	-27.733292
232.785690	913.254700	956.053162	905.527344	-18.055220
233.161087	917.861511	959.694031	908.945129	-21.314474
233.536469	914.220703	965.786804	909.168152	-9.798203
233.911804	910.802795	969.427673	902.629456	-13.941760
234.287140	908.202209	961.105713	903.149597	-9.550619
234.662430	914.072083	963.334778	891.112488	-46.606453
235.037704	919.793457	965.192383	893.490173	-57.938118
235.412933	911.991638	968.387390	888.809082	-41.106918
235.788162	904.635681	957.316223	889.477844	-28.773123
236.163345	904.338379	953.155334	887.768982	-33.941891
236.538513	912.734619	947.879822	893.044434	-56.025246
236.913635	914.369324	957.167664	900.028870	-33.507034
237.288742	915.781006	959.842590	900.771912	-34.063900
237.663834	916.672607	968.610291	903.892578	-24.606468
238.038879	920.164856	971.359436	906.270325	-27.140629
238.413910	916.969910	976.114807	910.802734	-10.427232
238.788910	907.161926	977.229309	910.951355	5.408264
239.163879	899.211487	982.133362	909.390930	12.275945
239.538834	894.827637	970.319275	909.688232	19.685089
239.913757	900.697571	968.610352	907.161865	9.518524
240.288651	899.360168	963.780579	908.276428	13.840737
240.663528	905.155762	969.056091	908.573669	5.348811
241.038361	902.034973	968.833191	911.471497	14.126909
241.413177	910.059753	969.278992	907.459167	-4.391455
241.787979	903.669739	968.164368	904.635559	1.497521
242.162735	899.360168	973.216980	901.886414	3.420463
242.537476	902.406555	972.251038	904.115540	2.446842
242.912170	908.647949	984.659485	914.666504	7.917949
243.286865	919.273254	976.932129	911.248535	-13.917579
243.661514	915.781006	980.201477	910.654114	-7.958483
244.036148	912.437317	977.526611	903.075378	-14.383224
244.410751	912.363098	987.557434	904.635742	-10.276513
244.785339	906.938965	982.876404	902.109375	-6.359959
245.159882	906.716125	977.972412	897.948425	-12.304459
245.534378	907.830750	978.418274	900.177429	-10.842313
245.908890	916.449768	987.483215	896.388000	-28.242706
246.283356	919.199036	994.616211	901.589172	-23.349937
246.657791	914.072083	992.981506	896.165039	-22.693163
247.032196	904.709961	999.000183	904.784180	0.078713
247.406586	901.960754	998.480042	897.948303	-4.157150
247.780960	907.979248	1004.795715	905.155701	-2.916392
248.155289	907.310547	996.919617	898.691406	-9.618603
248.529602	908.053528	998.479980	903.372498	-5.176616
248.903870	897.725403	995.730774	905.824463	8.263894
249.278122	903.075256	986.591553	909.316711	7.473338
249.652344	907.533447	987.706055	909.985413	3.058358
250.026550	913.180481	984.585388	895.645020	-24.557781
250.400711	913.106140	991.867004	894.084656	-24.150934
250.774857	912.734619	988.820557	895.719299	-22.363291
251.148987	911.025635	992.758606	904.041199	-8.545433
251.523071	910.059753	999.074402	904.412781	-6.343869
251.897125	906.938965	1004.572754	898.988586	-8.143061
252.271164	906.047424	1003.458252	902.332275	-3.813897
252.645187	904.338379	1006.058838	902.852356	-1.460889
253.019165	888.809082	997.439758	911.991516	21.340597
253.393112	892.152771	1005.018616	910.059631	15.865615
253.767044	890.443787	994.170410	909.613953	18.481432
254.140930	900.251770	996.770996	904.858582	4.772947
254.514801	895.124817	983.619385	904.709900	10.831267
254.888657	897.056702	988.894836	899.805969	2.993601
255.262466	904.189758	989.935059	890.741028	-15.684510
255.636276	907.979248	996.919617	896.313721	-13.116122
256.010010	915.038025	999.222961	905.007141	-11.915296
256.383759	919.347595	996.325134	914.666504	-6.081113
256.757446	929.006897	995.284851	911.248535	-26.793768
257.131134	931.013123	997.811218	913.477600	-26.251530
257.504791	924.994568	1011.111389	914.666504	-11.993086
257.878418	912.437500	1021.885254	912.214417	-0.203826
258.252014	907.533386	1027.978149	916.524109	7.464602
258.625580	915.781067	1026.714966	913.031799	-2.478293
258.999115	919.198914	1020.622131	917.415588	-1.758301
259.372650	909.985352	1024.337280	908.424988	-1.364528
259.746124	899.657410	1035.334106	904.338379	3.450091
260.119598	897.428284	1050.640503	904.412781	4.558708
260.493042	900.697571	1066.764160	910.728516	6.040315
260.866425	906.344666	1075.829102	917.192810	6.400673
261.239838	903.818359	1076.720703	917.341370	7.821184
261.613159	904.264160	1072.262573	912.660339	4.997773
261.986511	900.028809	1051.532104	913.626282	8.975035
262.359802	900.846191	1043.061646	914.146301	9.352085
262.733063	900.251709	1032.139038	908.350830	6.140940
263.106293	898.171326	1034.368164	907.904968	7.146746
263.479523	899.360168	1038.454712	904.932861	4.006406
263.852692	898.542786	1041.278320	917.935791	13.586670
264.225861	897.056824	1049.600220	915.483826	12.079843
264.598969	900.400391	1045.439331	914.294983	9.579905
264.972076	906.270264	1040.981079	903.669739	-1.930450
265.345154	916.672668	1039.718018	898.319885	-14.915462
265.718201	919.496155	1050.789063	895.050537	-18.619146
266.091217	919.496155	1056.064575	899.508728	-14.635468
266.464203	917.564270	1062.751831	905.824463	-8.085959
266.837158	918.307312	1057.699219	902.332275	-11.460520
267.210114	916.449768	1061.711548	899.137268	-11.918139
267.583038	910.579834	1063.271973	895.867920	-9.635017
267.955902	905.155762	1068.621704	899.657410	-3.363607
268.328766	903.223877	1076.126343	901.291992	-1.117326
268.701569	899.583008	1080.361694	906.493164	3.822440
269.074371	896.239441	1088.906372	908.945129	6.594639
269.447144	896.685242	1089.649414	910.579834	7.200607
269.819885	906.344543	1091.358276	909.613953	1.767117
270.192596	910.208252	1093.438843	909.019470	-0.648790
270.565277	910.579834	1099.977417	909.613953	-0.509976
270.937927	903.223816	1103.246704	910.951355	3.863328
271.310577	904.041199	1111.197144	908.276550	2.044523
271.683136	907.607666	1121.673828	906.344543	-0.590062
272.055725	912.065857	1136.162964	905.675842	-2.851449
272.428284	907.087585	1147.085449	911.248535	1.733745
272.800812	910.951355	1152.360962	915.558105	1.908271
273.173279	905.973145	1143.741821	913.700500	3.249947
273.545776	909.093811	1131.704712	916.152527	3.170876
273.918152	901.291992	1120.782227	917.787109	7.515194
274.290558	898.765686	1120.633667	912.437317	6.162057
274.662964	899.583008	1129.772949	912.437317	5.584219
275.035278	900.920471	1138.169067	900.325989	-0.250574
275.407593	900.771973	1137.351685	905.007080	1.790140
275.779907	901.440613	1135.419800	900.400391	-0.444579
276.152161	905.675964	1131.035889	905.378601	-0.131950
276.524384	911.025696	1137.797485	902.852295	-3.604241
276.896606	912.660339	1140.398071	905.601501	-3.099547
277.268799	904.189758	1152.286499	905.304260	0.449221
277.640930	899.805969	1162.911865	903.372559	1.355572
278.013031	894.456116	1168.113159	901.663574	2.633756
278.385162	904.487061	1167.518677	906.270325	0.677966
278.757233	911.917297	1164.992310	908.870911	-1.203748
279.129272	915.186584	1166.181152	907.979309	-2.871487
279.501282	911.991516	1176.880737	900.846191	-4.207542
279.873230	906.938965	1180.744507	901.663513	-1.926715
280.245178	909.762512	1184.682617	900.846191	-3.243241
280.617126	910.134033	1190.032349	894.010315	-5.760563
280.988983	909.316711	1208.830933	894.456055	-4.961586
281.360870	912.288818	1227.852417	893.267273	-6.027801
281.732697	910.208313	1237.288940	895.422058	-4.520676
282.104492	913.551941	1248.062866	904.115540	-2.820955
282.476288	906.790344	1253.189575	906.270325	-0.150121
282.848053	904.487000	1259.059570	913.997742	2.682312
283.219757	909.688232	1261.585938	907.459167	-0.633441
283.591461	911.620117	1264.409302	909.911133	-0.484421
283.963135	914.889404	1262.180298	908.499329	-1.839978
284.334747	911.025635	1262.106079	910.505554	-0.148137
284.706360	916.375488	1267.158691	902.926575	-3.833967
285.077942	918.827454	1277.189453	905.973083	-3.586979
285.449524	921.353821	1289.300903	901.886414	-5.290817
285.821014	913.849182	1300.520508	909.168030	-1.210628
286.192535	908.425049	1308.173706	909.390930	0.241622
286.563995	904.338379	1315.381104	905.675781	0.325368
286.935425	911.620117	1322.439819	904.784180	-1.663975
287.306824	915.038025	1333.882446	899.954590	-3.601202
287.678223	913.180420	1323.851563	911.248535	-0.470421
288.049561	909.168152	1322.885620	910.728333	0.377113
288.420898	908.276428	1316.867188	911.620056	0.818332
288.792145	909.762512	1326.377808	903.520996	-1.498149
289.163452	906.790344	1326.674927	902.480774	-1.026370
289.534668	903.000977	1333.956665	906.195984	0.741377
289.905914	902.183655	1341.758423	905.007141	0.642322
290.277039	905.007141	1353.647095	903.892639	-0.248418
290.648193	912.660339	1375.566406	903.521179	-1.974301
291.019318	918.307312	1398.525879	904.635681	-2.846960
291.390381	920.759277	1406.847656	906.716125	-2.889012
291.761475	922.914124	1413.163452	908.647949	-2.909983
292.132507	922.171082	1399.491821	909.093750	-2.739737
292.503510	919.124695	1396.222290	912.065918	-1.479525
292.874481	919.347595	1386.637329	915.855286	-0.747354
293.245422	913.626282	1393.993286	912.140137	-0.309377
293.616364	909.614014	1401.572266	914.517883	0.996806
293.987213	902.926758	1414.649414	906.493164	0.696941
294.358093	900.771912	1434.934082	913.551941	2.392537
294.728943	901.440613	1463.614868	909.985535	1.519977
295.099731	899.285828	1490.215454	905.527344	1.056220
295.470490	899.508728	1506.859253	896.833801	-0.440426
295.841248	901.143372	1520.530884	895.422058	-0.923705
296.211975	901.514893	1532.642212	905.750183	0.671068
296.582642	902.109375	1546.611206	912.065918	1.544843
296.953308	907.979248	1574.920410	913.997803	0.902412
297.323883	912.363098	1587.997681	907.310547	-0.747823
297.694519	914.369324	1606.424805	910.579773	-0.547579
298.065063	912.734680	1599.514648	909.093750	-0.530145
298.435608	909.391052	1590.375488	908.573669	-0.120030
298.806122	912.363220	1570.908203	904.189880	-1.241121
299.176575	914.443604	1551.515137	898.468506	-2.507583
299.547028	909.019531	1545.199341	894.901917	-2.219123
299.917450	904.709961	1535.837280	894.456116	-1.624687
300.287872	897.651184	1527.441040	898.394104	0.117963
300.658234	901.291992	1515.849731	902.406555	0.181360
301.028564	907.459167	1514.809570	909.019531	0.256913
301.398865	908.796570	1514.809570	906.716064	-0.343310
301.769135	915.335266	1519.193359	910.356934	-0.824421
302.139374	915.112366	1518.673340	902.406555	-2.105141
302.509583	912.883301	1517.632935	902.257996	-1.756976
302.879791	908.796570	1510.797241	905.527283	-0.543070
303.249939	908.276367	1508.791016	910.282532	0.334074
303.620087	911.471375	1501.360840	913.031738	0.264518
303.990173	912.288757	1502.029663	900.177429	-2.053669
304.360260	912.437439	1502.178223	903.075195	-1.587518
304.730286	906.864746	1509.756958	903.966858	-0.480664
305.100281	909.688232	1513.843750	917.267090	1.254455
305.470276	912.065918	1514.438110	917.192810	0.851117
305.840179	918.827393	1525.880859	914.889404	-0.648705
306.210144	912.065918	1524.469116	906.790344	-0.861454
306.579987	905.304260	1533.979614	901.217712	-0.650025
306.949890	897.651184	1540.295410	900.623291	0.462481
307.319702	904.338379	1560.282837	903.000977	-0.203890
307.689484	906.716125	1572.171387	908.573669	0.279139
308.059265	912.883301	1581.830688	912.437317	-0.066670
308.429016	907.310547	1601.669556	906.344666	-0.139104
308.798737	909.242432	1626.338013	897.056824	-1.699300
309.168396	908.499329	1652.938354	893.713196	-1.986211
309.538055	911.099915	1673.074341	897.576904	-1.774733
309.907684	906.938965	1683.996948	900.846191	-0.784082
310.277313	905.155762	1692.318726	900.697571	-0.566362
310.646851	904.115417	1699.674683	898.691345	-0.681794
311.016388	906.938965	1717.432983	897.279602	-1.191787
311.385895	913.923523	1729.024292	899.211487	-1.804935
311.755371	911.545837	1736.826050	904.487000	-0.855326
312.124817	904.487061	1736.826050	907.236267	0.330299
312.494232	900.251770	1735.117188	908.053528	0.934493
312.863617	901.960754	1725.234863	900.474609	-0.180516
313.232971	913.477600	1723.451660	906.567444	-0.853133
313.602295	916.449707	1721.742798	901.812073	-1.817678
313.971619	918.530273	1723.897461	907.830627	-1.328543
314.340820	909.391052	1714.535278	902.109375	-0.904394
314.710083	905.304382	1725.829224	905.601563	0.036218
315.079285	906.716125	1741.358765	911.174316	0.534144
315.448486	909.613953	1760.157227	908.425049	-0.139782
315.817596	908.573669	1764.764038	910.356934	0.208279
316.186707	907.533386	1754.138672	907.161865	-0.043884
316.555786	903.818298	1737.643555	914.294922	1.256453
316.924866	900.920471	1716.913086	914.369324	1.648159
317.293884	893.267395	1705.916138	909.168152	1.956658
317.662872	896.165222	1710.300171	903.000977	0.839634
318.031830	900.846191	1710.597168	905.675964	0.596452
318.400757	910.802734	1721.445435	908.276428	-0.311642
318.769684	912.660339	1727.166626	915.483826	0.346650
319.138550	909.019470	1740.541382	910.282715	0.151920
319.507416	909.539551	1747.228516	911.322937	0.212894
319.876190	907.087585	1741.953125	908.425110	0.160208
320.244995	909.465271	1742.324585	913.626282	0.499605
320.613770	901.143372	1735.934570	914.963684	1.655541
320.982483	904.264099	1738.237793	915.112305	1.300785
321.351166	910.282654	1725.309082	910.579773	0.036455
321.719818	906.567566	1720.628296	904.338379	-0.273835
322.088440	904.189941	1733.259399	897.353943	-0.824539
322.457062	901.886414	1757.928101	900.474670	-0.164915
322.825623	908.053528	1785.345703	908.276550	0.025422
323.194183	908.499329	1798.571777	914.666504	0.692885
323.562653	904.412781	1826.138062	913.329041	0.967345
323.931183	905.973145	1854.521606	910.654114	0.493488
324.299591	904.487061	1887.660645	906.047363	0.158701
