Jaz Data File
++++++++++++++++++++++++++++++++++++
Date: Fri Jun 04 16:36:18 2021
User: jaz
Dark Spectrum Present: Yes
Reference Spectrum Present: Yes
Processed Spectrum Present: Yes
Spectrometers: JAZA3586
Integration Time (usec): 40000 (JAZA3586)
Spectra Averaged: 10 (JAZA3586)
Boxcar Smoothing: 1 (JAZA3586)
Correct for Electrical Dark: No (JAZA3586)
Strobe/Lamp Enabled: Yes (JAZA3586)
Correct for Detector Non-linearity: No (JAZA3586)
Correct for Stray Light: No (JAZA3586)
Number of Pixels in Processed Spectrum: 2048
>>>>>Begin Processed Spectral Data<<<<<
W	D	R	S	P
191.335022	0.000000	0.000000	0.000000	0.000000
191.713211	235.539627	237.917343	238.511765	124.999680
192.091385	476.280426	474.943024	476.429077	-11.114914
192.469528	722.668274	719.027527	718.581604	112.248116
192.847641	729.504150	732.847717	725.343201	-124.446434
193.225739	737.825989	749.268555	732.476257	-46.752899
193.603790	744.141785	755.807312	747.039551	24.840422
193.981842	754.246887	753.429626	752.463684	218.192688
194.359863	759.968262	752.612305	756.921875	41.413872
194.737854	758.482239	759.225281	748.154114	-1389.978638
195.115829	763.088928	769.701965	748.674255	-217.973572
195.493774	763.534851	771.782410	753.355286	-123.425194
195.871704	769.627625	772.451172	759.002258	-376.312653
196.249603	763.683411	763.757629	759.076599	-6207.072266
196.627457	755.881592	764.500671	759.745300	44.827393
197.005310	756.401672	763.386169	760.265442	55.319221
197.383133	756.104492	766.283936	764.946472	86.861137
197.760910	762.717468	769.256042	763.831970	17.045031
198.138687	758.259277	768.958801	769.181702	102.083275
198.516449	763.609070	776.314758	759.671082	-30.993898
198.894180	757.962097	772.822571	759.522461	10.500094
199.271866	760.191101	764.797913	756.104492	-88.707970
199.649536	755.212891	757.367676	767.992981	593.102783
200.027191	756.401672	762.345886	771.930969	261.250641
200.404816	749.565857	763.014648	769.033203	144.751633
200.782410	748.302734	770.965027	768.958801	91.147293
201.159988	756.550293	771.633789	777.206482	136.945633
201.537537	759.448059	786.419983	780.327148	77.410454
201.915070	757.516296	790.209473	774.977356	53.408882
202.292557	752.389343	789.912292	764.054871	31.089046
202.670029	759.893982	793.181458	758.630798	-3.794771
203.047485	755.361389	786.122803	759.819641	14.493001
203.424911	751.646301	790.432373	764.426453	32.950363
203.802292	742.507080	787.608887	770.593506	62.273396
204.179688	745.924988	791.101074	774.308655	62.828964
204.557037	746.890869	787.311707	764.649353	43.933983
204.934357	749.045715	786.122803	761.602844	33.867626
205.311661	749.120056	783.076355	754.544128	15.973685
205.688934	746.222229	785.008301	754.767090	22.030746
206.066177	740.203613	777.949524	755.212891	39.763981
206.443390	738.494690	772.971191	754.767029	47.198349
206.820587	739.534973	766.655457	757.293274	65.479294
207.197769	743.175781	775.125977	759.150879	50.000000
207.574921	747.485352	779.955627	759.002258	35.469074
207.952042	749.714539	777.355042	761.008484	40.860130
208.329147	745.702087	779.584167	752.092102	18.859570
208.706223	752.983826	793.553040	763.906250	26.922937
209.083267	749.342957	799.200012	762.494629	26.378759
209.460297	759.225159	798.754211	770.890808	29.511583
209.837280	752.760803	787.460205	761.974426	26.552685
210.214264	747.411133	791.175354	760.488342	29.881052
210.591217	738.271912	781.293152	759.150879	48.531765
210.968124	733.070618	783.596497	758.110657	49.558838
211.345016	739.832214	783.150696	759.522461	45.454609
211.721893	738.346130	781.887512	756.030273	40.614567
212.098724	740.129395	780.104309	757.739197	44.052132
212.475555	743.547302	774.605896	763.460449	64.114777
212.852356	740.055115	774.828796	764.352112	69.871796
213.229126	738.866272	775.794678	763.237549	65.996017
213.605865	737.454529	767.844238	755.732971	60.146816
213.982590	742.061340	767.844238	758.779480	64.841972
214.359283	746.890930	760.042480	753.949707	53.672585
214.735931	741.169678	767.770020	755.584412	54.190033
215.112579	745.479187	770.221985	750.457520	20.120329
215.489197	737.083008	771.782410	748.525574	32.976261
215.865799	736.637207	775.646057	740.500977	9.904854
216.242355	728.092285	773.491272	739.832214	25.859451
216.618896	734.110840	778.915344	746.445129	27.529129
216.995407	735.968445	770.816406	753.429626	50.106750
217.371902	738.271790	773.342773	756.476013	51.906796
217.748367	735.522644	765.392334	753.429504	59.949936
218.124802	740.426575	775.125977	748.451233	23.126215
218.501236	746.147949	772.005310	742.878601	-12.643782
218.877609	748.079773	777.652344	753.726807	19.095512
219.253983	741.095276	769.553284	757.962097	59.269157
219.630295	736.934387	769.107422	764.129150	84.526573
220.006592	736.934387	763.460449	753.281006	61.624748
220.382889	739.237793	764.797852	758.705078	76.162910
220.759140	737.231628	767.992920	757.664856	66.425125
221.135391	739.609314	776.389160	761.231445	58.787987
221.511581	742.729980	777.949524	766.878418	68.565445
221.887772	746.147949	781.218811	772.971191	76.482986
222.263931	749.194275	777.280762	772.599670	83.333298
222.640060	748.154053	779.286926	760.562683	39.857002
223.016159	747.633972	780.921631	750.977600	10.044647
223.392212	738.866211	789.243469	753.726807	29.498619
223.768265	736.414246	790.135071	751.720703	28.492596
224.144302	738.049011	788.574707	751.497742	26.617605
224.520294	744.884766	777.652283	747.559753	8.163535
224.896286	750.606140	781.293030	753.652527	9.927323
225.272217	750.531738	777.875183	753.652527	11.413297
225.648148	752.017822	774.382996	756.178772	18.604593
226.024048	741.987000	776.314880	758.705078	48.701168
226.399902	738.420410	786.419983	761.900085	48.916424
226.775772	739.832214	798.828613	762.048645	37.657265
227.151581	749.194336	795.261963	754.544128	11.612911
227.527374	748.154114	792.438477	751.720642	8.053697
227.903137	747.411072	788.574707	749.342957	4.693183
228.278870	742.061279	788.054688	750.754700	18.901449
228.654572	749.417236	785.454102	755.584290	17.113178
229.030273	740.352356	787.980408	757.293396	35.569458
229.405930	741.987000	786.048523	755.881592	31.534525
229.781555	729.652649	782.184814	750.011658	38.755322
230.157181	729.652771	788.574768	748.154053	31.399618
230.532761	730.470032	785.602600	747.559631	30.997286
230.908325	736.934387	786.345642	756.773193	40.150379
231.283859	737.305908	782.779114	758.110657	45.751663
231.659332	739.683594	790.357971	756.698914	33.577759
232.034821	743.547363	794.964783	758.333496	28.757050
232.410263	747.931152	789.837891	750.977600	7.269589
232.785690	743.695984	781.961853	759.819641	42.135872
233.161087	739.460693	775.423157	754.023987	40.495819
233.536469	736.562805	766.655518	754.246887	58.765331
233.911804	730.915833	767.547180	751.423401	55.983658
234.287140	736.562805	766.135437	744.959167	28.392340
234.662430	739.832214	780.995911	746.147949	15.342973
235.037704	753.206726	784.933899	741.912659	-35.597458
235.412933	751.349121	791.546875	748.822754	-6.284847
235.788162	750.308899	786.642883	746.668030	-10.020561
236.163345	744.438965	786.865784	747.856934	8.056151
236.538513	742.209961	784.636780	751.794922	22.591751
236.913635	737.008728	790.580994	760.042480	42.995667
237.288742	735.522644	793.330139	759.596680	41.645180
237.663834	736.488586	791.621155	753.801086	31.401585
238.038879	739.237793	782.779114	756.178772	38.907822
238.413910	737.974609	784.190918	756.178772	39.389046
238.788910	742.878601	789.540710	760.339661	37.420212
239.163879	738.271790	791.175354	752.760925	27.387825
239.538834	739.312073	782.110413	753.949707	34.201408
239.913757	733.665039	779.955627	749.863098	34.992123
240.288651	734.556641	781.664612	759.596680	53.154568
240.663528	735.299744	789.615051	769.330383	62.653866
241.038361	735.002441	788.500488	763.460449	53.194481
241.413177	736.562805	784.933899	761.379944	51.305721
241.787979	730.915833	787.460266	745.181946	25.229916
242.162735	731.807556	795.187744	756.773193	39.390285
242.537476	737.677429	801.503479	753.206726	24.330656
242.912170	747.485352	795.336365	755.658691	17.080809
243.286865	745.999329	787.608887	752.760925	16.250105
243.661514	738.346191	784.785339	755.881592	37.759953
244.036148	737.677429	786.791504	763.460449	52.496193
244.410751	740.203796	798.308411	759.671082	33.503853
244.785339	742.135559	805.070007	750.085938	12.632792
245.159882	738.271790	801.577698	744.884766	10.446065
245.534378	739.980774	800.686218	747.559753	12.484843
245.908890	746.668152	793.776062	753.058105	13.564503
246.283356	744.736267	794.073242	756.104492	23.041998
246.657791	742.581360	791.026794	760.636963	37.269978
247.032196	737.008728	799.943115	759.522461	35.773342
247.406586	736.637207	811.905823	761.157043	32.576443
247.780960	730.395813	814.506348	758.110657	32.950504
248.155289	731.733215	806.258789	759.225281	36.889439
248.529602	733.813660	798.308411	756.327393	34.907852
248.903870	740.278015	786.568604	748.005554	16.693542
249.278122	738.791992	788.946289	748.971436	20.296253
249.652344	736.340027	792.958679	747.633972	19.947393
250.026550	736.860046	800.686096	755.955872	29.918545
250.400711	735.225403	797.491028	751.646301	26.372334
250.774857	737.603210	794.147461	752.463684	26.281139
251.148987	740.278076	789.466492	749.788818	19.335329
251.523071	739.460693	794.296082	750.977539	21.002579
251.897125	737.603027	798.531311	751.200439	22.317078
252.271164	731.733154	807.967773	752.463684	27.193066
252.645187	740.055115	813.837708	754.172668	19.133989
253.019165	733.070618	810.642761	756.698975	30.459848
253.393112	741.689758	814.506409	753.801086	16.632635
253.767044	735.894104	814.060608	747.559753	14.924103
254.140930	745.330627	812.500244	749.565918	6.305367
254.514801	735.745605	799.868835	750.531738	23.058933
254.888657	737.677429	787.088684	756.847473	38.796917
255.262466	742.284180	784.859680	752.612305	24.258375
255.636276	744.067566	790.358093	754.246887	21.990074
256.010010	745.702148	804.921387	758.556458	21.706306
256.383759	740.129395	811.608643	760.042480	27.858555
256.757446	741.318176	819.038879	763.014648	27.915949
257.131134	739.534973	811.608643	755.881592	22.680431
257.504791	738.791931	810.419739	752.166443	18.672234
257.878418	735.968445	807.001892	751.794922	22.280317
258.252014	736.860046	812.500244	754.989929	23.968582
258.625580	739.906433	824.908875	752.612244	14.947583
258.999115	740.946716	831.521729	753.280945	13.617695
259.372650	738.643311	845.564941	759.671082	19.666527
259.746124	738.271790	855.224304	764.054871	22.045769
260.119598	736.637207	866.815613	758.184998	16.552507
260.493042	740.426575	865.255188	753.503906	10.476229
260.866425	737.528809	863.100403	756.921875	15.443832
261.239838	736.860107	855.298645	763.534729	22.521910
261.613159	735.076843	852.549500	760.116882	21.315632
261.986511	737.825989	845.490723	758.556396	19.254595
262.359802	738.569031	840.883972	760.636963	21.568630
262.733063	743.250061	833.007874	764.500671	23.675499
263.106293	739.832214	827.137878	762.420166	25.872263
263.479523	743.027283	830.555847	760.859863	20.373442
263.852692	730.915833	832.339050	760.265442	28.937761
264.225861	734.779602	835.162598	759.819641	24.944502
264.598969	737.305847	835.459778	747.782654	10.673853
264.972076	739.386414	831.967529	758.184875	20.304855
265.345154	737.900330	834.791016	765.466614	28.450912
265.718201	734.928223	831.224548	782.630554	49.537022
266.091217	743.250061	844.004578	775.200378	31.711052
266.464203	745.479187	848.462708	776.240540	29.870171
266.837158	748.897156	856.710388	765.838135	15.713265
267.210114	748.302734	861.614258	760.488342	10.754077
267.583038	750.234558	873.502747	755.287109	4.098828
267.955902	750.160217	871.793762	752.538025	1.954895
268.328766	748.599915	872.611145	754.915710	5.092923
268.701569	746.965149	867.187012	757.664856	8.899968
269.074371	742.284180	875.806152	760.859863	13.912080
269.447144	740.203674	877.960938	763.980652	17.260054
269.819885	735.596924	887.323059	755.361511	13.026488
270.192596	739.757874	894.456116	762.345947	14.601377
270.565277	736.117004	908.425049	764.946533	16.731388
270.937927	743.101501	912.214539	771.559387	16.827730
271.310577	740.723816	925.143250	764.426453	12.852570
271.683136	741.838379	932.424866	758.036377	8.499027
272.055725	738.049011	938.963440	758.110657	9.985169
272.428284	739.683594	933.093567	758.482178	9.719553
272.800812	742.878662	935.174072	761.379944	9.621281
273.173279	745.702148	932.722107	764.277832	9.932461
273.545776	740.723816	938.369141	760.042542	9.774441
273.918152	734.036621	933.093567	763.980652	15.042947
274.290558	732.624817	937.774597	760.562683	13.618278
274.662964	738.197510	924.251526	768.215820	16.134192
275.035278	743.175781	919.793396	760.711243	9.928490
275.407593	738.940613	919.867737	758.705078	10.923992
275.779907	742.432800	933.910950	753.652527	5.859534
276.152161	741.689758	951.594971	758.259277	7.893810
276.524384	744.290344	957.316223	762.568848	8.580415
276.896606	744.513245	964.895081	759.522461	6.810551
277.268799	755.064270	969.724792	760.636963	2.596049
277.640930	753.652527	977.823792	758.705078	2.253880
278.013031	750.754700	979.532776	764.575012	6.040925
278.385162	744.141785	973.885742	753.801086	4.204377
278.757233	754.246887	974.851746	756.996094	1.246213
279.129272	752.537903	983.990906	761.454285	3.852351
279.501282	757.516296	996.548096	768.736023	4.693822
279.873230	748.897156	998.702881	766.952637	7.227809
280.245178	742.730042	997.588379	763.237549	8.046630
280.617126	735.596985	1010.219788	762.717468	9.875540
280.988983	735.819824	1028.126831	759.225159	8.007107
281.360870	743.918884	1047.891235	761.379883	5.744272
281.732697	743.993164	1054.429810	762.865967	6.079438
282.104492	744.661865	1068.918823	762.940369	5.637043
282.476288	736.191406	1091.952759	760.934143	6.954869
282.848053	738.866211	1104.732788	764.797852	7.087731
283.219757	736.785828	1101.983643	768.290100	8.626633
283.591461	740.129395	1097.451172	773.268372	9.274267
283.963135	741.764160	1095.667969	768.290222	7.495275
284.334747	738.049011	1104.955811	768.661621	8.343430
284.706360	740.575195	1105.550293	760.191162	5.374604
285.077942	738.494812	1118.181641	762.123047	6.223085
285.449524	743.250183	1134.453979	762.568848	4.938261
285.821014	737.603088	1153.846924	765.466614	6.694039
286.192535	740.055176	1171.382446	768.587341	6.614969
286.563995	737.751709	1191.072632	770.890808	7.310296
286.935425	747.708252	1201.772217	771.262268	5.187378
287.306824	750.160217	1196.273804	764.129211	3.131264
287.678223	754.767029	1184.979858	759.893860	1.191696
288.049561	752.983704	1178.441162	768.364502	3.615120
288.420898	748.376953	1175.097534	766.432617	4.231262
288.792145	749.937317	1180.521606	768.067200	4.210530
289.163452	750.977600	1175.469116	760.116760	2.152966
289.534668	748.897156	1186.243042	765.540955	3.805637
289.905914	748.599915	1198.057129	766.061035	3.884935
290.277039	746.370850	1227.183716	772.228210	5.377843
290.648193	753.578186	1252.966797	779.955627	5.281947
291.019318	744.513367	1266.935669	777.652283	6.343319
291.390381	742.581482	1277.635254	768.364441	4.818760
291.761475	740.649597	1271.096558	759.596680	3.571909
292.132507	743.175781	1268.421753	762.494446	3.678022
292.503510	747.039551	1258.836670	759.002258	2.337393
292.874481	744.959045	1262.923340	758.407898	2.596483
293.245422	745.999329	1268.347412	751.126221	0.981509
293.616364	745.925049	1282.019043	752.612305	1.247404
293.987213	745.850769	1299.331665	748.302734	0.443008
294.358093	746.667969	1330.167236	755.807312	1.566299
294.728943	740.649475	1359.294067	755.881592	2.462176
295.099731	737.603027	1393.176147	763.683350	3.978248
295.470490	738.123230	1415.689819	758.927979	3.070510
295.841248	735.299744	1432.482056	757.144714	3.133322
296.211975	735.002502	1443.033203	752.612305	2.487152
296.582642	735.002502	1452.395142	755.510071	2.858625
296.953308	741.689758	1481.298950	763.831970	2.993772
297.323883	744.216064	1509.608398	772.525391	3.698669
297.694519	744.587585	1534.796997	764.426331	2.510568
298.065063	743.918762	1546.908325	766.581238	2.822263
298.435608	741.912659	1534.871216	758.036316	2.033354
298.806122	736.637207	1508.939575	763.311829	3.453909
299.176575	735.448242	1464.803711	759.076599	3.239622
299.547028	732.699036	1429.435669	763.386169	4.404409
299.917450	733.962219	1411.751587	765.689636	4.681014
300.287872	737.974609	1410.859985	766.655518	4.262376
300.658234	741.095398	1424.160156	767.324219	3.839873
301.028564	745.330566	1431.441772	769.033203	3.454635
301.398865	751.943542	1438.797852	759.076599	1.038511
301.769135	751.349121	1433.893921	754.098328	0.402788
302.139374	753.503906	1430.104492	752.760925	-0.109811
302.509583	741.095276	1426.612183	762.717468	3.154144
302.879791	748.451355	1427.206665	770.519226	3.251226
303.249939	748.079773	1425.571899	771.039368	3.388909
303.620087	750.754639	1424.160278	770.593506	2.946050
303.990173	746.445129	1425.200562	765.169434	2.758623
304.360260	740.055115	1431.664917	763.906250	3.448640
304.730286	740.426575	1433.596680	763.460449	3.322976
305.100281	738.420410	1442.587280	760.636963	3.155013
305.470276	737.677429	1446.302368	765.020813	3.858654
305.840179	737.677429	1453.286987	764.203430	3.706770
306.210144	729.578430	1460.122681	762.122986	4.454837
306.579987	730.544373	1462.054688	759.596680	3.971551
306.949890	725.194580	1475.131836	757.367615	4.290097
307.319702	736.340027	1483.973999	764.797852	3.806385
307.689484	739.906555	1496.085327	761.677185	2.879032
308.059265	742.804382	1511.985962	769.033142	3.409957
308.429016	736.860107	1536.505981	768.661621	3.976950
308.798737	738.123230	1572.691406	768.513000	3.641377
309.168396	741.541199	1601.520874	769.479004	3.248659
309.538055	742.061279	1619.799316	764.797913	2.590367
309.907684	738.420471	1642.313110	762.940369	2.712700
310.277313	726.977844	1656.505005	755.881531	3.109504
310.646851	732.624817	1675.675171	758.259277	2.718249
311.016388	738.940613	1684.219849	758.705078	2.090860
311.385895	750.011719	1698.114380	758.779358	0.924756
311.755371	752.612305	1700.343384	753.429626	0.086240
312.124817	753.801086	1709.557007	757.887756	0.427585
312.494232	752.017822	1702.721069	763.609070	1.219229
312.863617	742.135559	1703.761353	767.844299	2.673466
313.232971	742.581360	1689.792603	766.952637	2.572951
313.602295	742.581360	1679.910278	762.048645	2.076890
313.971619	748.228455	1674.040161	758.036377	1.059386
314.340820	739.163513	1688.603516	758.853699	2.073874
314.710083	743.918884	1723.823120	756.921814	1.326959
315.079285	739.609375	1758.299683	763.980469	2.392395
315.448486	747.262512	1771.971313	757.887695	1.036898
315.817596	750.457520	1760.380249	759.299500	0.875511
316.186707	750.606140	1746.039673	759.745361	0.918115
316.555786	749.268738	1725.234985	762.791809	1.385609
316.924866	745.702148	1713.866577	762.717468	1.757482
317.293884	746.965332	1705.767578	765.541016	1.937384
317.662872	748.005554	1698.040039	768.290222	2.135151
318.031830	745.776367	1687.489136	767.621399	2.319713
318.400757	745.553528	1689.049438	763.980652	1.953069
318.769684	743.844543	1701.532227	760.414063	1.730159
319.138550	739.312073	1723.823120	759.745361	2.075476
319.507416	743.695984	1740.244141	759.076660	1.543395
319.876190	746.445129	1749.160278	762.866028	1.637643
320.244995	753.652527	1759.042603	771.708008	1.795868
320.613770	752.760925	1748.194336	772.153809	1.948185
320.982483	744.290344	1732.070679	772.079590	2.813302
321.351166	733.293640	1711.043091	769.256042	3.678080
321.719818	729.801331	1700.046265	780.104309	5.184565
322.088440	735.819885	1712.529297	773.417053	3.849371
322.457062	740.203674	1727.761230	767.918640	2.806415
322.825623	738.791992	1749.234741	755.287109	1.632464
323.194183	737.157288	1777.841309	765.095154	2.684567
323.562653	736.117004	1808.528320	769.999084	3.159429
323.931183	740.723816	1846.794067	764.649231	2.163101
324.299591	740.500916	1883.648438	755.881592	1.345467
324.668060	739.683533	1928.824341	755.361511	1.318429
325.036407	741.912659	1974.074707	758.705078	1.362842
