Jaz Data File
++++++++++++++++++++++++++++++++++++
Date: Fri Jun 04 16:18:46 2021
User: jaz
Dark Spectrum Present: Yes
Reference Spectrum Present: Yes
Processed Spectrum Present: Yes
Spectrometers: JAZA3586
Integration Time (usec): 40000 (JAZA3586)
Spectra Averaged: 10 (JAZA3586)
Boxcar Smoothing: 1 (JAZA3586)
Correct for Electrical Dark: No (JAZA3586)
Strobe/Lamp Enabled: Yes (JAZA3586)
Correct for Detector Non-linearity: No (JAZA3586)
Correct for Stray Light: No (JAZA3586)
Number of Pixels in Processed Spectrum: 2048
>>>>>Begin Processed Spectral Data<<<<<
W	D	R	S	P
191.335022	0.000000	0.000000	0.000000	0.000000
191.713211	302.709259	311.922791	299.142792	-38.709015
192.091385	614.260559	623.697021	607.721985	-69.290527
192.469528	925.737549	936.511475	921.948242	-35.171085
192.847641	941.043945	939.334961	938.591980	143.475006
193.225739	943.644531	952.486572	944.016113	4.202446
193.603790	944.016113	964.152100	944.759094	3.689816
193.981842	948.622864	970.021973	945.650696	-13.889214
194.359863	958.876648	966.455505	947.879822	-145.098740
194.737854	973.662903	971.953857	951.297668	1308.639038
195.115829	975.297607	974.554504	954.121155	2849.733154
195.493774	979.532715	978.195313	953.006653	1983.401733
195.871704	981.613220	970.690735	949.365906	295.237885
196.249603	985.922791	974.554504	943.941711	369.282379
196.627457	980.721680	972.399658	952.932373	333.924957
197.005310	977.675293	975.000305	956.721863	783.309387
197.383133	973.142761	974.108704	962.666077	-1084.607666
197.760910	981.613220	970.913757	959.916809	202.780380
198.138687	975.669006	967.867249	962.220215	172.381561
198.516449	972.771179	966.158203	962.071594	161.796814
198.894180	962.220215	971.582336	955.978760	-66.667099
199.271866	966.083984	966.381104	956.944763	-3075.945068
199.649536	964.152161	962.591736	955.681641	542.834229
200.027191	959.545410	962.071594	958.430847	-44.120419
200.404816	956.053040	967.272888	959.694031	32.451340
200.782410	950.777649	981.687683	966.158386	49.759689
201.159988	955.755920	997.811279	971.359558	37.102615
201.537537	953.303955	1012.523193	973.068420	33.375076
201.915070	964.523621	1007.321960	964.375000	-0.347258
202.292557	958.282227	998.182678	967.792969	23.836176
202.670029	960.659912	993.501648	970.319275	29.411852
203.047485	948.771484	991.049622	977.898132	68.892929
203.424911	953.303955	989.563660	977.898132	67.827850
203.802292	955.904541	989.340637	975.223328	57.778236
204.179688	961.254333	992.015625	974.183105	42.029354
204.557037	959.768250	994.764832	965.786804	17.197550
204.934357	958.653748	996.176575	965.935364	19.405830
205.311661	961.848694	999.074402	966.752747	13.173833
205.688934	962.294617	996.993958	975.446106	37.901264
206.066177	960.362732	998.405701	971.805359	30.078165
206.443390	955.681641	1001.600647	971.582336	34.627701
206.820587	951.743591	1001.600647	968.164368	32.935711
207.197769	950.331848	991.272644	966.381165	39.201283
207.574921	950.480286	994.319031	963.780579	30.339128
207.952042	943.793152	992.387024	963.409119	40.367161
208.329147	939.112061	993.353027	966.752686	50.958946
208.706223	954.492676	992.535706	981.018799	69.726631
209.083267	968.535889	993.724609	974.851746	25.074148
209.460297	972.102356	994.021790	976.114807	18.305450
209.837280	954.715576	986.740051	964.672180	31.090609
210.214264	943.644531	987.334473	971.136536	62.925247
210.591217	945.204895	989.563660	964.449280	43.383499
210.968124	945.873596	985.402649	967.792969	55.451298
211.345016	956.870422	987.260254	965.340881	27.872675
211.721893	954.938660	991.495605	970.913574	43.698711
212.098724	953.824036	997.439758	975.594727	49.914776
212.475555	952.560852	995.210632	979.978516	64.285591
212.852356	950.480408	987.928955	978.641113	75.198395
213.229126	952.858093	983.990906	967.495789	47.016937
213.605865	942.678528	983.247864	961.700012	46.886360
213.982590	943.124451	986.219971	964.969421	50.689655
214.359283	946.319519	983.247864	961.774414	41.851036
214.735931	942.381409	982.727783	969.278992	66.666664
215.112579	937.700378	985.105469	966.009705	59.717903
215.489197	934.876770	988.895020	970.690735	66.299751
215.865799	950.108887	995.507813	970.913635	45.826523
216.242355	955.755859	994.913391	971.656677	40.607304
216.618896	955.012878	990.455261	972.399719	49.056637
216.995407	939.557922	978.715393	969.501953	76.470802
217.371902	937.105957	977.898132	969.947693	80.509888
217.748367	939.409363	982.579163	964.597900	58.347591
218.124802	948.622864	984.511047	964.375000	43.892265
218.501236	951.966492	989.637939	959.916809	21.104359
218.877609	951.297852	990.009460	970.170593	48.752151
219.253983	951.817932	995.804993	966.604065	33.614731
219.630295	947.285339	992.387146	961.700134	31.960571
220.006592	949.068604	994.839111	955.681641	14.448250
220.382889	951.743591	992.164246	959.545410	19.301565
220.759140	955.087158	987.706116	972.399719	53.075150
221.135391	945.427795	989.712219	973.811523	64.094154
221.511581	942.158447	992.015625	975.966248	67.809296
221.887772	938.889160	997.216797	972.771240	58.089237
222.263931	945.873718	998.108459	978.864075	63.157883
222.640060	939.780823	1005.538757	971.285217	47.909649
223.016159	939.037842	1010.888489	975.074646	50.155155
223.392212	940.895447	1009.328125	969.278992	41.476597
223.768265	952.858093	1001.303467	969.799133	34.969368
224.144302	959.916809	992.758728	963.186218	9.954988
224.520294	958.802246	991.569824	957.836426	-2.947488
224.896286	952.635193	994.467590	961.105713	20.248709
225.272217	952.040710	993.724609	963.186218	26.738161
225.648148	951.372009	997.439758	964.746582	29.032398
226.024048	950.926208	997.291199	955.978821	10.897473
226.399902	953.824036	999.817383	952.932434	-1.938545
226.775772	953.303894	991.123962	947.359680	-15.717089
227.151581	948.399902	991.346863	949.588684	2.768023
227.527374	942.158447	984.213806	949.663086	17.844667
227.903137	933.019226	987.185852	958.059265	46.227798
228.278870	942.530029	990.529541	967.792969	52.631660
228.654572	943.718811	999.074402	971.953857	51.006676
229.030273	953.972595	997.737000	970.764954	38.369900
229.405930	950.406067	990.232422	969.873352	48.880409
229.781555	946.542419	990.604004	974.108582	62.562801
230.157181	940.598145	997.142578	975.520325	61.760597
230.532761	937.328857	994.541992	975.297546	66.363586
230.908325	939.483643	988.895020	973.514221	68.871948
231.283859	943.124451	983.545166	975.223206	79.411644
231.659332	947.582581	991.495422	973.217102	58.375912
232.034821	944.387512	996.102234	967.495789	44.684135
232.410263	942.307129	995.656433	973.142761	57.799503
232.785690	948.028503	986.517151	967.644348	50.965275
233.161087	957.464844	984.213806	966.529846	33.889175
233.536469	955.978821	984.065247	954.121277	-6.613671
233.911804	957.019104	987.111633	961.625793	15.308415
234.287140	958.579407	999.148682	970.170593	28.571342
234.662430	965.861084	1005.687256	976.560730	26.865866
235.037704	955.384338	1002.566650	973.365723	38.110435
235.412933	951.074768	990.901123	963.929199	32.276192
235.788162	940.449524	984.956848	963.186218	51.085285
236.163345	944.090393	994.096130	968.090149	47.994003
236.538513	943.495911	1003.978333	977.675232	56.511166
236.913635	949.737488	1009.551086	978.269531	47.701599
237.288742	943.718933	1006.281738	973.737122	47.980885
237.663834	935.396973	1004.869934	962.814697	39.465317
238.038879	934.728271	1003.532532	965.935364	45.356339
238.413910	935.025452	1013.266174	966.009705	39.601185
238.788910	941.861328	1008.956543	976.783508	52.048691
239.163879	935.248352	1011.185730	971.062256	47.162418
239.538834	939.260681	999.445862	968.758850	49.012344
239.913757	935.917053	1003.978333	966.381165	44.759827
240.288651	949.663086	1002.640930	969.799072	38.008316
240.663528	954.864258	1010.442688	977.600891	40.909096
241.038361	959.991150	1009.551086	978.418213	37.181370
241.413177	955.161438	1004.795715	977.006531	44.012112
241.787979	953.452454	1000.709167	970.913635	36.949631
242.162735	954.789856	996.845398	980.052917	60.070705
242.537476	952.932373	1002.417969	970.913635	36.336357
242.912170	953.601074	1010.888489	968.238770	25.551329
243.286865	954.195557	1017.352783	956.276062	3.294168
243.661514	955.755859	1018.393066	961.551514	9.252734
244.036148	951.594910	1016.758484	966.381165	22.690983
244.410751	952.560852	1018.838928	971.582336	28.699512
244.785339	947.805481	1021.885315	975.297424	37.111237
245.159882	951.669250	1014.529297	976.263428	39.125294
245.534378	944.684875	1009.179504	972.845459	43.663456
245.908890	950.183167	1006.058838	979.012634	51.595741
246.283356	946.913879	1007.842102	980.795898	55.609730
246.657791	945.650696	1010.591309	979.012695	51.373089
247.032196	938.740540	1018.170105	973.960144	44.340675
247.406586	931.013123	1030.132935	965.118103	34.407833
247.780960	936.139954	1043.581665	964.820801	26.694332
248.155289	939.929382	1048.634277	971.433777	28.981579
248.529602	944.090332	1046.405151	975.148926	30.355909
248.903870	940.895325	1037.711792	971.953918	32.079868
249.278122	938.146179	1027.755249	957.464844	21.558826
249.652344	946.096497	1018.467468	957.316223	15.503076
250.026550	953.675476	1008.882385	957.241943	6.460183
250.400711	960.139709	1010.591309	963.334778	6.332938
250.774857	949.068665	1017.947266	962.888977	20.064741
251.148987	933.465088	1023.371399	967.941589	38.347141
251.523071	925.737610	1020.919434	966.678406	43.013248
251.897125	937.626038	1020.845032	970.913757	40.000145
252.271164	945.650696	1019.284668	968.758972	31.382629
252.645187	950.703308	1023.222839	966.158386	21.311607
253.019165	939.632263	1026.120605	970.616455	35.824703
253.393112	942.678650	1034.814087	976.932190	37.177380
253.767044	951.223450	1036.968750	983.470764	37.608257
254.140930	957.093445	1030.950317	979.681335	30.583330
254.514801	951.297791	1028.646851	975.891907	31.796270
254.888657	942.158508	1032.510620	974.480164	35.772995
255.262466	941.564148	1041.129761	972.771240	31.343243
255.636276	942.009827	1040.832520	971.508057	29.849651
256.010010	945.204895	1040.758179	967.495789	23.328234
256.383759	944.238953	1037.043091	963.260498	20.496441
256.757446	952.337891	1043.730347	957.910706	6.097675
257.131134	948.325623	1045.142090	967.718567	20.030626
257.504791	948.399902	1056.436035	972.622559	22.420885
257.878418	945.130615	1054.652832	984.585266	36.024334
258.252014	952.040710	1057.253418	981.464600	27.966099
258.625580	957.687805	1056.956177	982.356262	24.850269
258.999115	954.344177	1066.244141	977.377930	20.584236
259.372650	953.303894	1078.132446	977.006531	18.988153
259.746124	949.514465	1091.729858	971.285156	15.308252
260.119598	957.093323	1097.896973	967.941589	7.704535
260.493042	952.115051	1107.407715	965.192383	8.421088
260.866425	953.006653	1109.711182	971.210754	11.616832
261.239838	949.811707	1114.020752	975.817627	15.837082
261.613159	944.610535	1108.299438	976.635010	19.564230
261.986511	936.808777	1103.023926	975.817627	23.468889
262.359802	935.248352	1095.593628	975.074646	24.837833
262.733063	943.867493	1088.311890	972.696960	19.958868
263.106293	951.520691	1089.203613	970.542175	13.815428
263.479523	948.919983	1095.370605	970.765076	14.916353
263.852692	940.523743	1094.776245	969.576172	18.834333
264.225861	938.220398	1090.466797	967.049866	18.936058
264.598969	947.731140	1081.773438	961.700012	10.421242
264.972076	949.811707	1083.630981	961.254211	8.550715
265.345154	948.771484	1081.104614	967.272766	13.980839
265.718201	944.164734	1089.277954	973.588562	20.276463
266.091217	949.143005	1100.348999	978.938293	19.705097
266.464203	948.399963	1106.739136	975.594727	17.175007
266.837158	945.502136	1116.695557	974.628723	17.013847
267.210114	938.666260	1120.113525	973.960022	19.451250
267.583038	943.793152	1134.676758	974.554443	16.115210
267.955902	948.622803	1136.757324	969.799133	11.255952
268.328766	956.647461	1131.779053	968.313049	6.661042
268.701569	952.263611	1130.292969	971.879639	11.018423
269.074371	947.879700	1143.964722	978.343933	15.536237
269.447144	949.440186	1153.698364	979.830078	14.878177
269.819885	950.554749	1159.494019	973.142761	10.810802
270.192596	948.177063	1156.893433	972.474060	11.641155
270.565277	940.449524	1168.410278	975.669006	15.449800
270.937927	942.307129	1185.128418	983.322266	16.891079
271.310577	942.604309	1205.561646	978.938293	13.817445
271.683136	948.548523	1221.165161	982.059082	12.292192
272.055725	949.960266	1232.161987	983.768066	11.980012
272.428284	952.263672	1236.917480	979.978577	9.736355
272.800812	951.817871	1244.273315	970.765076	6.478663
273.173279	947.582703	1239.740845	967.941589	6.968448
273.545776	953.675476	1235.802856	969.576172	5.635999
273.918152	952.189453	1229.338501	971.656738	7.024121
274.290558	944.684814	1225.028931	972.845520	10.045050
274.662964	938.666321	1226.812134	973.514343	12.093884
275.035278	939.112122	1221.759644	971.136536	11.330159
275.407593	940.821045	1228.149658	969.799133	10.085347
275.779907	948.697205	1232.607910	974.182922	8.976666
276.152161	947.434021	1244.942017	975.669128	9.490538
276.524384	959.248108	1255.270142	978.418274	6.475925
276.896606	948.177063	1259.431152	976.635010	9.142995
277.268799	948.994324	1266.861450	972.251160	7.316527
277.640930	946.690918	1262.254517	962.443176	4.991786
278.013031	942.827148	1269.313354	966.604187	7.282709
278.385162	942.752869	1267.752930	971.359558	8.802056
278.757233	945.799316	1281.870483	973.588562	8.268857
279.129272	952.040771	1280.607300	973.439941	6.512888
279.501282	953.452454	1287.889038	972.994141	5.843167
279.873230	943.644531	1300.297729	981.241699	10.541660
280.245178	944.981995	1317.164429	980.275818	9.482936
280.617126	941.489746	1335.071289	984.288086	10.874072
280.988983	945.576416	1340.049683	976.114807	7.741561
281.360870	949.365906	1364.792358	981.315979	7.690910
281.732697	946.616699	1386.340210	978.046692	7.147672
282.104492	947.582703	1414.203735	981.910461	7.356668
282.476288	945.947937	1431.070435	974.703064	5.927395
282.848053	946.542297	1431.962036	977.377930	6.352365
283.219757	947.582520	1432.853638	981.390320	6.966786
283.591461	944.238953	1426.835083	986.294250	8.714388
283.963135	951.372009	1433.596680	987.334534	7.457629
284.334747	951.669189	1433.893921	988.449036	7.627117
284.706360	948.028381	1443.553223	986.442871	7.752284
285.077942	947.359680	1460.717163	989.117859	8.134328
285.449524	943.273132	1486.203125	984.956848	7.677549
285.821014	947.434021	1500.171875	991.272644	7.931178
286.192535	944.238953	1528.555664	991.792786	8.138366
286.563995	944.907715	1542.004395	994.987793	8.387264
286.935425	949.960266	1561.694702	990.380920	6.607549
287.306824	950.703308	1560.654297	990.529602	6.529425
287.678223	949.365906	1551.515015	991.495544	6.996546
288.049561	940.523865	1535.465820	991.644104	8.592475
288.420898	934.059570	1525.880737	984.511047	8.524784
288.792145	936.214294	1527.812500	978.269592	7.108760
289.163452	940.077942	1538.512207	976.932190	6.158445
289.534668	941.861267	1550.549194	986.814453	7.385260
289.905914	935.471252	1582.127808	989.414978	8.341944
290.277039	933.910889	1609.248413	989.117859	8.174723
290.648193	939.780823	1636.294434	982.059082	6.069983
291.019318	945.873718	1641.569946	986.517273	5.842141
291.390381	950.108887	1657.990845	985.402649	4.985826
291.761475	951.743591	1652.864136	989.340637	5.362422
292.132507	954.418457	1653.458496	977.898010	3.358828
292.503510	957.390564	1632.876587	978.641113	3.145964
292.874481	956.721863	1629.161499	976.040527	2.872922
293.245422	957.687805	1626.560913	978.938293	3.177058
293.616364	952.189453	1642.907593	974.405945	3.216434
293.987213	954.567078	1657.025024	968.907471	2.041459
294.358093	941.935608	1692.690308	972.771301	4.107293
294.728943	944.684814	1731.104858	978.269592	4.270590
295.099731	941.043945	1775.017700	986.145691	5.408053
295.470490	947.433899	1808.602539	986.219971	4.503888
295.841248	939.780762	1822.497070	991.049622	5.808079
296.211975	939.855164	1834.905640	994.764832	6.134812
296.582642	943.198730	1861.654785	998.851501	6.059383
296.953308	946.839600	1899.697754	987.260254	4.242043
297.323883	950.703369	1949.629272	984.659668	3.399281
297.694519	953.601135	1959.585571	979.309814	2.555574
298.065063	954.195557	1963.598022	992.238464	3.768854
298.435608	946.988098	1941.455688	990.158020	4.341008
298.806122	939.483582	1913.815063	988.894958	5.071311
299.176575	938.369080	1872.205688	981.687500	4.638758
299.547028	936.288574	1846.274048	979.681396	4.768518
299.917450	940.821045	1821.456909	983.842285	4.885247
300.287872	943.495911	1814.100952	984.362488	4.694043
300.658234	949.440186	1806.819214	983.916687	4.021151
301.028564	955.904541	1813.432129	982.950745	3.153975
301.398865	950.703308	1820.639648	979.235596	3.279813
301.769135	945.502136	1812.466309	986.220032	4.696607
302.139374	942.901550	1813.580933	982.059082	4.497354
302.509583	942.307129	1814.249512	989.637939	5.428204
302.879791	951.743469	1815.661255	983.916687	3.724106
303.249939	952.189392	1817.147339	991.346924	4.527102
303.620087	951.817871	1814.843750	988.746338	4.278953
303.990173	943.570313	1811.500366	992.758606	5.667311
304.360260	938.517761	1808.676758	994.839172	6.472543
304.730286	946.022278	1810.608765	998.108459	6.024404
305.100281	949.960266	1819.599121	994.690430	5.143533
305.470276	947.433899	1824.503296	990.529541	4.913596
305.840179	944.981934	1834.682617	992.981628	5.395039
306.210144	935.768372	1849.171753	992.015686	6.157993
306.579987	937.774597	1861.060181	992.238525	5.898925
306.949890	943.347351	1866.855835	985.402649	4.553862
307.319702	951.149231	1870.125122	988.300476	4.042679
307.689484	954.864441	1895.759766	990.603821	3.798444
308.059265	950.851990	1914.261108	994.690613	4.550364
308.429016	948.622803	1952.898438	992.833008	4.402198
308.798737	941.712646	1978.087036	985.699951	4.244345
309.168396	942.009949	2013.306519	987.111633	4.210009
309.538055	936.808777	2036.563477	984.436707	4.330778
309.907684	941.638367	2059.820068	994.764832	4.751148
310.277313	935.619812	2080.922119	990.752441	4.813806
310.646851	946.765320	2104.996094	990.232422	3.752888
311.016388	944.610535	2121.194092	977.006531	2.753395
311.385895	946.988220	2124.834961	981.315979	2.914451
311.755371	943.495911	2118.816406	984.808289	3.514988
312.124817	941.638367	2125.503418	991.198242	4.186278
312.494232	946.839539	2122.085449	995.284973	4.122153
312.863617	943.198730	2120.896729	1001.897949	4.984233
313.232971	947.359680	2105.293213	1014.009277	5.755908
313.602295	947.136719	2111.757568	1009.402527	5.346445
313.971619	957.167664	2120.822510	1007.024719	4.284523
314.340820	957.241943	2122.383057	1001.526367	3.800778
314.710083	951.297791	2133.454346	1001.526367	4.248894
315.079285	946.319397	2145.937012	1004.201233	4.825024
315.448486	945.576416	2182.270752	1005.018555	4.806534
315.817596	948.474182	2189.180908	1002.343689	4.341840
316.186707	943.941711	2180.710205	996.325195	4.235512
316.555786	950.257507	2142.741943	988.894836	3.240070
316.924866	949.960266	2113.243896	991.421204	3.564130
317.293884	952.337952	2093.702148	996.325134	3.853913
317.662872	943.198730	2086.494873	1004.052673	5.322675
318.031830	938.517578	2089.095459	1006.578918	5.915405
318.400757	938.889160	2103.064453	1008.287903	5.961194
318.769684	944.016113	2119.039307	1008.139343	5.457189
319.138550	945.799316	2142.593018	1009.996887	5.364130
319.507416	944.833435	2152.921143	1007.173401	5.160219
319.876190	942.901550	2158.419922	1006.281738	5.214252
320.244995	947.136780	2165.032959	1012.003113	5.326097
320.613770	954.567078	2154.853271	1018.838867	5.354706
320.982483	956.721863	2146.754150	1022.256836	5.506991
321.351166	954.418457	2119.410889	1014.083496	5.121496
321.719818	949.068604	2111.237549	1019.359070	6.048214
322.088440	949.142883	2119.262451	1024.337280	6.426215
322.457062	948.102722	2138.729736	1033.848145	7.201704
322.825623	949.068665	2164.884033	1033.030640	6.905816
323.194183	948.474304	2192.450439	1040.535278	7.400542
323.562653	948.399963	2229.676025	1046.553833	7.660634
323.931183	944.759094	2267.793213	1054.727173	8.311810
