Jaz Data File
++++++++++++++++++++++++++++++++++++
Date: Fri Jun 04 16:09:23 2021
User: jaz
Dark Spectrum Present: Yes
Reference Spectrum Present: Yes
Processed Spectrum Present: Yes
Spectrometers: JAZA3586
Integration Time (usec): 33500 (JAZA3586)
Spectra Averaged: 10 (JAZA3586)
Boxcar Smoothing: 1 (JAZA3586)
Correct for Electrical Dark: No (JAZA3586)
Strobe/Lamp Enabled: Yes (JAZA3586)
Correct for Detector Non-linearity: No (JAZA3586)
Correct for Stray Light: No (JAZA3586)
Number of Pixels in Processed Spectrum: 2048
>>>>>Begin Processed Spectral Data<<<<<
W	D	R	S	P
191.335022	0.000000	0.000000	0.000000	0.000000
191.713211	343.427155	341.792572	337.557220	359.109070
192.091385	684.030823	687.671692	679.349792	-128.569031
192.469528	1030.727417	1035.779907	1023.148499	-150.003632
192.847641	1039.866577	1050.417603	1038.752075	-10.562973
193.225739	1060.745605	1062.231689	1042.541504	-1224.971191
193.603790	1066.318359	1074.194458	1048.337036	-228.302414
193.981842	1072.485474	1075.606201	1048.782837	-759.522766
194.359863	1070.479370	1071.445313	1060.968628	-984.607605
194.737854	1075.234619	1068.770264	1064.609375	164.366638
195.115829	1072.708374	1068.621704	1069.141846	87.272240
195.493774	1072.931274	1069.661987	1068.027222	150.003738
195.871704	1075.457642	1070.850952	1077.240845	-38.708992
196.249603	1074.120117	1066.764160	1077.166626	-41.415531
196.627457	1074.788940	1071.370972	1076.795044	-58.692856
197.005310	1076.497803	1067.953003	1072.485474	46.956387
197.383133	1086.826050	1072.559814	1072.634155	99.478905
197.760910	1090.986816	1074.343140	1067.878784	138.839706
198.138687	1086.008545	1084.745483	1065.575317	1617.753906
198.516449	1084.745239	1086.751587	1057.179077	-1373.947388
198.894180	1080.955933	1086.900269	1063.271973	-297.492615
199.271866	1083.779419	1085.191284	1062.008789	-1541.976440
199.649536	1076.051880	1079.024048	1067.878662	-274.991791
200.027191	1073.971558	1076.646484	1071.147949	-105.558342
200.404816	1073.897339	1070.776489	1062.528809	364.276764
200.782410	1070.776489	1086.751465	1067.953003	-17.674433
201.159988	1066.541138	1100.126099	1066.318359	-0.663328
201.537537	1067.729980	1109.636841	1083.036499	36.525089
201.915070	1074.491577	1104.138306	1085.488403	37.092884
202.292557	1071.668213	1100.126099	1088.832153	60.313477
202.670029	1067.953003	1100.200317	1091.952759	74.424042
203.047485	1059.631226	1104.584229	1089.277954	65.950493
203.424911	1058.665161	1102.801025	1086.974487	64.141319
203.802292	1056.733276	1100.869141	1082.813599	59.090996
204.179688	1056.881836	1098.565674	1080.881714	57.575981
204.557037	1057.550659	1103.766846	1082.144897	53.215637
204.934357	1058.145020	1107.184814	1081.030396	46.666950
205.311661	1058.665161	1103.692505	1079.767212	46.864967
205.688934	1055.247192	1099.085815	1085.637085	69.322189
206.066177	1052.052246	1093.661743	1086.603027	83.035805
206.443390	1047.445435	1095.222046	1094.256104	97.978210
206.820587	1056.361816	1095.073486	1087.643188	80.806053
207.197769	1059.928345	1098.194336	1087.346069	71.650368
207.574921	1066.169800	1103.692505	1081.921875	41.980118
207.952042	1063.420532	1104.584351	1080.361572	41.155170
208.329147	1056.436035	1103.395386	1076.274902	42.246895
208.706223	1063.123413	1103.692627	1079.692871	40.842442
209.083267	1054.578613	1103.246826	1078.429565	49.007248
209.460297	1054.949951	1099.160156	1079.098267	54.621586
209.837280	1043.284424	1088.163330	1076.720703	74.503326
210.214264	1052.720947	1086.082886	1073.228516	61.469955
210.591217	1056.138916	1094.181885	1077.760986	56.835918
210.968124	1055.692993	1100.869263	1077.612427	48.519794
211.345016	1052.572388	1105.178711	1082.590698	57.062172
211.721893	1052.720947	1099.160278	1082.070435	63.199635
212.098724	1050.714844	1098.342896	1074.640137	50.233616
212.475555	1046.182373	1094.404785	1073.228394	56.085999
212.852356	1044.399048	1095.816528	1073.748657	57.080994
213.229126	1048.560059	1094.256226	1073.897217	55.447010
213.605865	1058.367920	1096.559570	1073.599976	39.883209
213.982590	1062.974731	1090.838257	1072.188232	33.066528
214.359283	1061.265747	1091.952759	1080.584473	62.954079
214.735931	1055.544434	1087.346069	1079.618530	75.700813
215.112579	1056.807617	1095.370728	1073.302856	42.774658
215.489197	1064.460815	1086.677246	1068.695923	19.062952
215.865799	1063.940552	1086.603027	1075.160400	49.508488
216.242355	1061.339966	1088.906372	1076.497803	54.986626
216.618896	1057.624878	1097.674194	1074.714722	42.671997
216.995407	1060.522705	1098.045776	1064.757935	11.287002
217.371902	1057.476318	1099.234497	1065.352417	18.861212
217.748367	1058.739502	1094.627686	1069.810547	30.848719
218.124802	1056.287476	1087.940430	1071.445190	47.887203
218.501236	1058.590942	1084.448120	1067.358521	33.907715
218.877609	1050.863403	1099.160156	1071.519531	42.769184
219.253983	1054.504272	1108.225098	1068.844604	26.694178
219.630295	1051.011963	1108.225098	1077.686646	46.623356
220.006592	1052.943848	1099.754517	1069.884888	36.190552
220.382889	1046.405273	1098.342773	1075.606201	56.223206
220.759140	1047.371216	1098.565674	1076.423462	56.748810
221.135391	1049.228638	1093.810303	1078.726929	66.166870
221.511581	1057.550659	1094.330444	1078.727051	57.576168
221.887772	1063.866333	1092.175659	1073.897217	35.433144
222.263931	1068.547485	1092.547241	1078.801147	42.724026
222.640060	1064.312134	1093.364624	1077.315063	44.756680
223.016159	1062.603149	1092.472900	1080.584473	60.199108
223.392212	1058.888062	1095.073364	1069.810547	30.184866
223.768265	1054.950073	1091.358398	1068.175903	36.326389
224.144302	1045.513550	1091.729858	1065.055176	42.282967
224.520294	1035.854248	1088.460571	1069.959106	64.830338
224.896286	1039.717896	1093.513184	1079.692749	74.309212
225.272217	1047.222412	1099.234497	1084.373901	71.428574
225.648148	1057.104614	1109.785400	1088.089111	58.815556
226.024048	1051.160645	1106.813354	1080.807495	53.271172
226.399902	1049.377319	1105.475830	1078.801270	52.450500
226.775772	1042.095703	1100.274780	1076.126343	58.492916
227.151581	1050.789063	1107.259155	1074.194458	41.447418
227.527374	1047.222534	1105.178711	1072.336914	43.333397
227.903137	1049.971802	1104.435669	1072.559814	41.473392
228.278870	1051.160522	1108.968140	1074.120239	39.717461
228.654572	1059.408203	1119.593384	1076.274902	28.024672
229.030273	1070.925171	1129.772827	1075.309082	7.449594
229.405930	1067.284302	1135.271362	1075.160400	11.584702
229.781555	1060.374146	1136.757324	1076.200562	20.719767
230.157181	1051.606323	1135.122681	1080.510132	34.608559
230.532761	1051.977783	1128.286743	1078.652588	34.956322
230.908325	1051.011841	1122.937012	1073.377075	31.095142
231.283859	1058.665161	1122.639771	1071.742310	20.441154
231.659332	1053.092407	1118.924683	1075.829102	34.537308
232.034821	1049.303101	1119.221802	1078.875488	42.295391
232.410263	1046.999634	1121.673828	1081.178833	45.771099
232.785690	1044.101807	1123.531494	1081.550415	47.146866
233.161087	1055.618774	1121.599487	1077.538086	33.220787
233.536469	1049.451660	1119.964966	1073.377075	33.930355
233.911804	1058.367920	1119.444702	1073.154175	24.209290
234.287140	1041.724243	1118.478882	1077.166504	46.176052
234.662430	1039.940918	1123.159912	1078.949829	46.875008
235.037704	1037.340332	1122.937012	1073.674316	42.447891
235.412933	1047.742798	1133.413696	1072.113892	28.447342
235.788162	1049.971680	1133.562378	1064.014893	16.799971
236.163345	1056.733276	1143.295898	1068.250122	13.304641
236.538513	1059.482544	1138.243286	1068.621704	11.603700
236.913635	1058.070679	1133.562378	1070.107788	15.944944
237.288742	1044.027466	1128.435425	1066.318359	26.408522
237.663834	1037.934814	1130.813110	1065.426636	29.599834
238.038879	1033.550903	1137.426147	1075.160400	40.057182
238.413910	1044.696411	1140.695435	1081.847656	38.699608
238.788910	1045.365112	1139.135010	1081.773315	38.827175
239.163879	1049.971680	1131.556030	1081.178833	38.251396
239.538834	1046.925293	1127.172241	1082.144897	43.889027
239.913757	1055.024292	1130.887329	1086.900269	42.017796
240.288651	1055.024414	1137.054565	1083.853882	35.144966
240.663528	1049.228638	1148.645874	1085.414063	36.397537
241.038361	1043.358765	1150.280396	1086.082886	39.958351
241.413177	1042.615845	1160.459839	1090.764038	40.857571
241.787979	1051.383545	1173.388550	1089.649292	31.364080
242.162735	1051.755005	1184.236816	1087.197388	26.752640
242.537476	1055.470093	1196.793945	1078.504028	16.298689
242.912170	1044.919067	1209.053833	1083.408081	23.449642
243.286865	1045.810791	1223.988647	1081.996216	20.308598
243.661514	1043.210205	1231.270386	1088.237671	23.943115
244.036148	1051.309204	1225.697754	1084.225220	18.875101
244.410751	1054.652710	1216.781372	1081.996216	16.865313
244.785339	1060.819946	1198.725830	1075.309082	10.506539
245.159882	1062.306030	1198.651489	1081.253296	13.896514
245.534378	1054.429932	1202.218018	1088.683472	23.177471
245.908890	1049.303101	1220.050659	1091.061157	24.456020
246.283356	1044.621948	1233.796753	1081.624634	19.560049
246.657791	1052.646606	1258.911011	1075.606079	11.131088
247.032196	1058.813721	1289.969604	1074.194458	6.653838
247.406586	1060.374146	1320.433716	1073.451294	5.028521
247.780960	1057.624878	1352.532349	1077.835327	6.853149
248.155289	1053.835571	1355.207275	1080.955933	8.998974
248.529602	1051.309204	1341.535522	1086.677246	12.186366
248.903870	1047.222534	1314.192261	1083.110840	13.442837
249.278122	1044.398926	1299.257324	1087.717529	16.997126
249.652344	1045.364868	1277.338135	1080.733032	15.246655
250.026550	1043.656128	1260.248413	1080.807373	17.152617
250.400711	1044.101929	1241.672729	1071.965332	14.102997
250.774857	1040.461060	1238.031860	1074.120239	17.036516
251.148987	1043.135864	1232.384888	1081.550415	20.298414
251.523071	1046.033691	1236.768799	1081.178833	18.426153
251.897125	1055.767334	1247.319824	1087.197388	16.408064
252.271164	1064.312134	1262.254639	1079.990112	7.920471
252.645187	1063.197632	1283.728149	1085.265503	10.006720
253.019165	1062.974731	1294.056152	1067.209961	1.832787
253.393112	1059.333862	1299.926147	1072.039673	5.281055
253.767044	1062.231689	1282.242065	1068.027222	2.634209
254.140930	1053.686890	1268.867554	1081.996216	13.156074
254.514801	1049.674561	1254.006958	1075.383179	12.581763
254.888657	1044.473267	1247.914185	1080.881592	17.896265
255.262466	1056.510376	1246.948242	1077.240845	10.885686
255.636276	1057.922119	1253.115356	1077.835205	10.201730
256.010010	1058.962280	1266.266968	1079.989990	10.143384
256.383759	1047.445435	1275.406250	1090.169556	18.741871
256.757446	1043.804565	1275.703369	1096.708130	22.813211
257.131134	1045.959351	1283.802368	1090.986694	18.931540
257.504791	1043.879028	1294.724976	1082.293335	15.313904
257.878418	1048.411499	1321.399536	1086.454346	13.935719
258.252014	1046.628052	1341.312744	1095.296387	16.515392
258.625580	1053.092407	1378.390015	1103.321045	15.440826
258.999115	1046.182251	1419.256348	1097.822754	13.841889
259.372650	1041.872681	1464.804077	1090.243774	11.437101
259.746124	1041.352661	1517.038696	1081.550415	8.450480
260.119598	1054.504272	1579.675781	1077.612427	4.400116
260.493042	1063.271973	1637.334595	1083.779541	3.572357
260.866425	1062.826050	1658.733887	1087.123169	4.077328
261.239838	1049.377319	1630.498901	1086.082886	6.316332
261.613159	1052.126465	1578.041016	1077.166626	4.761261
261.986511	1051.903442	1516.890015	1082.516479	6.583639
262.359802	1056.956177	1470.525024	1092.473022	8.587892
262.733063	1054.281250	1445.187866	1093.958862	10.150151
263.106293	1057.624878	1430.401733	1086.900269	7.853328
263.479523	1067.135742	1437.460449	1083.036377	4.293701
263.852692	1062.974731	1439.243652	1084.151001	5.627961
264.225861	1062.231812	1446.748413	1085.785645	6.125570
264.598969	1049.451782	1441.324219	1085.859985	9.290831
264.972076	1050.269165	1438.723633	1087.346069	9.544724
265.345154	1041.724243	1440.135376	1084.448242	10.723596
265.718201	1046.553833	1452.543945	1079.098511	8.016126
266.091217	1053.315308	1472.605591	1079.247070	6.184680
266.464203	1057.401978	1500.989258	1080.658813	5.242899
266.837158	1054.801392	1516.890015	1083.705200	6.255036
267.210114	1043.061523	1540.889771	1084.522583	8.328386
267.583038	1047.222534	1564.741089	1084.522461	7.207457
267.955902	1052.795166	1583.168091	1085.339722	6.136165
268.328766	1052.200806	1583.985352	1086.157104	6.385349
268.701569	1046.033691	1577.446777	1078.875488	6.180088
269.074371	1042.170044	1583.762329	1076.126343	6.269716
269.447144	1045.662231	1599.440430	1073.525757	5.031532
269.819885	1053.389648	1614.300903	1084.596802	5.563653
270.192596	1048.708496	1634.734009	1090.838257	7.189066
270.565277	1054.504150	1653.012573	1091.655640	6.207346
270.937927	1049.525879	1694.845093	1090.095215	6.286708
271.310577	1055.470093	1740.021118	1086.528687	4.537075
271.683136	1056.881836	1800.800781	1087.420288	4.105078
272.055725	1051.977905	1841.667358	1089.426392	4.742179
272.428284	1053.686890	1857.122192	1088.311890	4.309619
272.800812	1051.680786	1847.239868	1083.779541	4.034742
273.173279	1060.151245	1820.342407	1079.767212	2.580399
273.545776	1057.253418	1805.258911	1081.476196	3.238316
273.918152	1051.383423	1792.924683	1083.482300	4.328671
274.290558	1054.281250	1790.992798	1082.367798	3.812421
274.662964	1049.600220	1784.156860	1078.801147	3.975313
275.035278	1042.690186	1786.163086	1082.887817	5.406738
275.407593	1040.906860	1779.104492	1085.934204	6.099633
275.779907	1044.547607	1801.766724	1090.689575	6.093608
276.152161	1050.417480	1818.930664	1092.026978	5.414285
276.524384	1044.621948	1855.041870	1095.667969	6.298712
276.896606	1048.337036	1866.261353	1090.615356	5.168977
277.268799	1052.795288	1883.202515	1081.996094	3.516444
277.640930	1058.367920	1892.564453	1077.835327	2.333672
278.013031	1051.086304	1905.270142	1082.962158	3.731732
278.385162	1050.863403	1899.400391	1091.061157	4.737301
278.757233	1050.937622	1897.319946	1085.859863	4.126060
279.129272	1057.996460	1899.549194	1080.584351	2.684073
279.501282	1062.083130	1910.768921	1079.172729	2.013654
279.873230	1051.532104	1935.065796	1092.324341	4.616942
280.245178	1051.457764	1952.749878	1094.627563	4.789768
280.617126	1048.114136	2004.018555	1100.943481	5.526635
280.988983	1057.327759	2039.683960	1098.640015	4.205425
281.360870	1060.522705	2090.581299	1105.995972	4.414629
281.732697	1052.423706	2134.494141	1102.280884	4.607572
282.104492	1047.222534	2186.134521	1100.571899	4.684239
282.476288	1042.170044	2227.372803	1093.290161	4.313196
282.848053	1051.086304	2256.499268	1094.776245	3.624479
283.219757	1059.259644	2270.616943	1089.426392	2.490326
283.591461	1063.420532	2263.335205	1092.175659	2.396431
283.963135	1060.448364	2250.406494	1088.163452	2.329081
284.334747	1052.572388	2255.087402	1089.352173	3.058572
284.706360	1049.971802	2290.455566	1094.999268	3.629831
285.077942	1051.457886	2330.430420	1096.708130	3.538015
285.449524	1050.863281	2371.519775	1092.473022	3.150686
285.821014	1052.349487	2394.776611	1079.915894	2.053475
286.192535	1045.439331	2439.209717	1073.154297	1.988489
286.563995	1050.714844	2476.806885	1079.395752	2.011154
286.935425	1040.832520	2519.754150	1080.213013	2.662784
287.306824	1051.680786	2516.038818	1082.367676	2.095587
287.678223	1053.315430	2484.088623	1085.414185	2.243455
288.049561	1060.151367	2432.299561	1093.290283	2.415112
288.420898	1049.526001	2396.114258	1099.977417	3.746610
288.792145	1043.878906	2384.522705	1095.444946	3.846364
289.163452	1047.965576	2397.897461	1095.073608	3.489660
289.534668	1050.640503	2433.116943	1092.398560	3.020526
289.905914	1049.302979	2471.754150	1095.073608	3.217729
290.277039	1043.730347	2533.053955	1095.816528	3.497304
290.648193	1052.646606	2596.731445	1091.804199	2.535974
291.019318	1058.070801	2663.975586	1088.832153	1.915515
291.390381	1060.374146	2683.442871	1086.677368	1.620586
291.761475	1059.185425	2674.675049	1084.968384	1.595984
292.132507	1060.076904	2631.876709	1090.689575	1.947619
292.503510	1055.692993	2598.737549	1088.088989	2.099485
292.874481	1051.755005	2575.629639	1091.432739	2.603740
293.245422	1045.216431	2585.586182	1086.825806	2.701259
293.616364	1048.485840	2620.359619	1088.460571	2.543126
293.987213	1048.708618	2664.198486	1092.101440	2.686047
294.358093	1053.687012	2733.596924	1090.912476	2.215920
294.728943	1057.030640	2821.051514	1088.609131	1.790143
295.099731	1057.030518	2906.722412	1090.318115	1.799629
295.470490	1058.368042	2950.041016	1089.872314	1.665419
295.841248	1052.200806	2967.947998	1102.429443	2.621882
296.211975	1046.628052	3003.167236	1098.640015	2.658365
296.582642	1045.587891	3067.736328	1095.667969	2.476578
296.953308	1050.194702	3153.853516	1091.284058	1.953233
297.323883	1059.482544	3200.589844	1088.609131	1.360351
297.694519	1053.909790	3242.719482	1085.042603	1.422363
298.065063	1056.287476	3251.412842	1078.429688	1.008699
298.435608	1053.092529	3227.487061	1079.692749	1.223339
298.806122	1055.247192	3143.896484	1085.562866	1.451449
299.176575	1052.126587	3027.910156	1082.813477	1.553150
299.547028	1050.491821	2956.208252	1077.463745	1.415317
299.917450	1056.213257	2923.812256	1077.612305	1.145805
300.287872	1053.835449	2927.007080	1084.671021	1.646169
300.658234	1056.138794	2919.576904	1092.770142	1.965794
301.028564	1054.875610	2896.840088	1094.107544	2.129896
301.398865	1061.414307	2872.246094	1091.209839	1.645406
301.769135	1057.699219	2863.552734	1093.215942	1.966756
302.139374	1058.145020	2874.475342	1099.011475	2.249946
302.509583	1053.984009	2897.954834	1098.714355	2.425762
302.879791	1056.658813	2898.549072	1096.559570	2.166294
303.249939	1052.869507	2886.660889	1101.240601	2.637764
303.620087	1049.302979	2839.849854	1102.057983	2.946307
303.990173	1045.736450	2813.026611	1106.887695	3.460170
304.360260	1047.073853	2795.862549	1097.228394	2.867959
304.730286	1053.018066	2811.986328	1098.565796	2.589457
305.100281	1061.934448	2825.212158	1094.330444	1.837260
305.470276	1059.928223	2841.187500	1095.593628	2.002258
305.840179	1055.172852	2859.317383	1096.485229	2.289860
306.210144	1043.507324	2874.400391	1095.593628	2.844858
306.579987	1047.519653	2896.393799	1105.475952	3.134681
306.949890	1051.011963	2909.768799	1104.955811	2.902147
307.319702	1056.881836	2945.136719	1109.191040	2.770241
307.689484	1049.228638	2981.248047	1101.835083	2.722873
308.059265	1039.197754	3023.451904	1104.732910	3.302760
308.429016	1034.293945	3069.742920	1101.612183	3.307292
308.798737	1031.544800	3134.311523	1101.760742	3.339217
309.168396	1039.346558	3208.837158	1108.448120	3.185151
309.538055	1047.668335	3269.988281	1114.986694	3.029193
309.907684	1052.869629	3291.536133	1108.745239	2.495933
310.277313	1047.222534	3310.334717	1097.896973	2.239148
310.646851	1040.758179	3326.532471	1101.537964	2.659046
311.016388	1046.182251	3346.074219	1106.144653	2.607183
311.385895	1057.179077	3343.547852	1102.652344	1.988886
311.755371	1058.219360	3345.554443	1095.444946	1.627465
312.124817	1054.801392	3362.718018	1099.011475	1.915584
312.494232	1049.674561	3366.284424	1107.927856	2.514592
312.863617	1056.361816	3343.325195	1105.624512	2.154066
313.232971	1057.476318	3307.511475	1100.869141	1.928540
313.602295	1063.197632	3289.530029	1094.181885	1.391717
313.971619	1057.699219	3302.235596	1094.999146	1.661810
314.340820	1059.259521	3315.239014	1098.342896	1.732435
314.710083	1053.761230	3366.953369	1105.475952	2.235643
315.079285	1052.943848	3402.618896	1113.426270	2.574076
315.448486	1057.476318	3450.618408	1119.816284	2.604942
315.817596	1057.550537	3431.225342	1117.364258	2.519878
316.186707	1057.922119	3385.900391	1113.946289	2.406559
316.555786	1049.525879	3323.114990	1103.766968	2.385703
316.924866	1047.594116	3273.778076	1105.252930	2.590029
317.293884	1045.959351	3246.063232	1108.968140	2.863900
317.662872	1049.971680	3231.499756	1122.937012	3.344689
318.031830	1052.423706	3237.592529	1128.212524	3.468328
318.400757	1049.451660	3255.425049	1129.921509	3.647816
318.769684	1046.479614	3273.183594	1130.144409	3.757338
319.138550	1033.476563	3292.130859	1142.552979	4.829266
