Jaz Data File
++++++++++++++++++++++++++++++++++++
Date: Fri Jun 04 16:01:43 2021
User: jaz
Dark Spectrum Present: Yes
Reference Spectrum Present: Yes
Processed Spectrum Present: Yes
Spectrometers: JAZA3586
Integration Time (usec): 24600 (JAZA3586)
Spectra Averaged: 10 (JAZA3586)
Boxcar Smoothing: 1 (JAZA3586)
Correct for Electrical Dark: No (JAZA3586)
Strobe/Lamp Enabled: Yes (JAZA3586)
Correct for Detector Non-linearity: No (JAZA3586)
Correct for Stray Light: No (JAZA3586)
Number of Pixels in Processed Spectrum: 2048
>>>>>Begin Processed Spectral Data<<<<<
W	D	R	S	P
191.335022	0.000000	0.000000	0.000000	0.000000
191.713211	387.488678	386.225494	386.374146	88.232025
192.091385	782.481934	776.240479	778.320984	66.666344
192.469528	1172.942749	1174.948853	1178.812622	292.600708
192.847641	1184.311157	1189.289429	1186.391602	41.790497
193.225739	1196.571167	1199.320190	1188.100464	-308.134979
193.603790	1211.877319	1200.360474	1188.620728	201.935425
193.981842	1215.518188	1204.224121	1199.468872	142.103958
194.359863	1208.905273	1203.852661	1209.425415	-10.294509
194.737854	1212.768921	1214.849487	1215.666748	139.280685
195.115829	1216.855591	1212.694702	1216.038330	19.641495
195.493774	1224.806030	1210.465576	1219.010376	40.414719
195.871704	1219.159058	1204.892944	1214.255249	34.373825
196.249603	1223.468628	1208.533691	1223.840210	-2.488005
196.627457	1216.781372	1210.985718	1227.703979	-188.462021
197.005310	1218.787598	1215.221069	1229.264282	-293.750214
197.383133	1212.026001	1212.248901	1223.765747	5266.812500
197.760910	1210.688599	1217.821655	1214.998047	60.415169
198.138687	1208.013672	1216.707031	1215.072388	81.196640
198.516449	1204.521484	1217.301392	1212.100220	59.301960
198.894180	1206.527466	1213.883545	1213.140503	89.898941
199.271866	1202.069458	1216.038330	1208.013550	42.552410
199.649536	1199.171753	1215.221069	1205.413086	38.888466
200.027191	1201.846558	1219.901978	1203.481079	9.052802
200.404816	1200.360474	1213.437622	1206.007446	43.181988
200.782410	1202.440918	1226.069214	1210.094116	32.389973
201.159988	1203.183960	1232.756470	1218.861938	53.015381
201.537537	1212.397461	1237.586060	1216.632690	16.814074
201.915070	1209.796875	1236.694458	1212.174683	8.840228
202.292557	1204.149902	1234.911255	1215.369629	36.473450
202.670029	1196.422485	1242.490112	1222.948364	57.580303
203.047485	1196.050903	1249.400269	1224.211548	52.785343
203.424911	1191.592773	1261.734497	1217.524292	36.970177
203.802292	1197.462524	1257.053345	1212.174561	24.688427
204.179688	1197.314087	1248.359985	1208.682251	22.270475
204.557037	1199.691772	1237.957642	1209.796997	26.407932
204.934357	1188.397827	1239.518066	1208.608032	39.534645
205.311661	1187.060181	1244.867798	1211.580200	42.416588
205.688934	1192.038574	1253.858398	1206.007446	22.596104
206.066177	1193.004517	1257.796387	1207.419189	22.247656
206.443390	1195.902222	1252.743774	1209.351074	23.660248
206.820587	1191.741333	1246.428101	1211.654541	36.413212
207.197769	1198.057129	1237.363281	1207.865112	24.952795
207.574921	1199.914551	1239.517944	1206.156128	15.760208
207.952042	1195.307739	1233.127930	1206.899170	30.648790
208.329147	1190.626831	1241.747070	1209.722534	37.354488
208.706223	1191.444092	1237.586060	1215.741089	52.657047
209.083267	1196.868286	1233.499390	1211.431396	39.756134
209.460297	1206.378906	1227.109497	1220.570679	68.458122
209.837280	1203.926880	1224.806030	1210.019775	29.181721
210.214264	1195.456421	1231.567627	1215.518188	55.555519
210.591217	1186.168579	1228.595581	1210.094238	56.392529
210.968124	1186.094360	1228.223999	1212.769043	63.315716
211.345016	1190.032349	1233.053589	1209.202515	44.559772
211.721893	1193.004517	1244.496216	1197.611328	8.946707
212.098724	1191.592773	1248.657227	1201.920898	18.099052
212.475555	1193.227417	1249.771851	1197.016724	6.701467
212.852356	1191.369873	1240.929810	1198.502808	14.392542
213.229126	1188.917847	1246.799683	1195.605103	11.553289
213.605865	1193.598999	1250.663330	1197.834106	7.421637
213.982590	1197.388550	1256.830444	1204.595703	12.124703
214.359283	1196.645386	1256.681885	1198.205688	2.598924
214.735931	1192.261475	1249.028687	1199.097290	12.041838
215.112579	1187.580444	1251.703613	1201.177734	21.204956
215.489197	1193.524536	1248.880249	1209.128052	28.187723
215.865799	1187.431885	1243.381714	1206.230347	33.598782
216.242355	1187.357544	1238.774902	1200.434692	25.433334
216.618896	1182.379272	1232.310547	1195.902222	27.083124
216.995407	1182.230469	1236.545898	1202.218140	36.799252
217.371902	1183.270752	1230.824585	1208.830933	53.749989
217.748367	1195.084961	1229.858521	1208.756714	39.316517
218.124802	1206.304565	1228.001099	1201.920776	-20.205021
218.501236	1204.001221	1234.168213	1197.165527	-22.659512
218.877609	1188.843384	1244.570557	1198.651489	17.600222
219.253983	1176.063354	1250.366211	1202.589600	35.700169
219.630295	1180.744507	1244.719238	1201.995239	33.217384
220.006592	1182.453613	1247.096802	1204.595703	34.252781
220.382889	1194.119019	1249.846069	1205.264404	19.999956
220.759140	1195.307861	1256.904785	1208.682251	21.712755
221.135391	1203.852661	1257.499146	1200.434692	-6.371282
221.511581	1203.258301	1251.332153	1197.611206	-11.746707
221.887772	1196.422485	1251.555054	1195.233521	-2.156556
222.263931	1193.227417	1245.833740	1199.320190	11.581827
222.640060	1189.066528	1242.713013	1201.400757	22.991680
223.016159	1190.329590	1241.821411	1210.019897	38.239681
223.392212	1188.843506	1243.381714	1213.437866	45.095654
223.768265	1186.094238	1250.514771	1214.775269	44.521568
224.144302	1185.276978	1253.486938	1216.261108	45.424641
224.520294	1188.249023	1251.183594	1213.809204	40.613895
224.896286	1190.106567	1257.573608	1215.146606	37.114475
225.272217	1193.598877	1257.127808	1208.979614	24.210604
225.648148	1188.769409	1260.397095	1207.865112	26.659668
226.024048	1191.964233	1254.452759	1213.363403	34.244961
226.399902	1191.146851	1262.106079	1213.214844	31.099539
226.775772	1198.428589	1261.140015	1206.304810	12.559466
227.151581	1191.592651	1265.152344	1202.812500	15.252713
227.527374	1192.558594	1260.322754	1201.177856	12.719501
227.903137	1188.471924	1273.474243	1210.837158	26.311323
228.278870	1188.992065	1284.248169	1204.521362	16.302679
228.654572	1186.911621	1300.000366	1203.332642	14.520473
229.030273	1183.939575	1312.111816	1206.899048	17.912983
229.405930	1187.729126	1317.461548	1212.100342	18.785755
229.781555	1192.856079	1320.730957	1216.038452	18.128950
230.157181	1197.982910	1324.891846	1211.134399	10.362934
230.532761	1198.279907	1332.024902	1209.128296	8.111248
230.908325	1194.936401	1332.396362	1203.109741	5.945979
231.283859	1189.512207	1324.297363	1202.961060	9.977992
231.659332	1186.020020	1311.442993	1202.812378	13.388582
232.034821	1189.661011	1304.978638	1200.806274	9.664840
232.410263	1187.580444	1303.567017	1200.806274	11.402898
232.785690	1192.855957	1298.588745	1203.035278	9.627402
233.161087	1187.283203	1297.028198	1207.344849	18.280237
233.536469	1194.564819	1292.272827	1209.425415	15.209189
233.911804	1192.930176	1291.009766	1206.824707	14.166588
234.287140	1193.524536	1292.421509	1211.728882	18.407385
234.662430	1192.558594	1291.604248	1211.728760	19.354879
235.037704	1197.091064	1300.223267	1210.688477	13.184448
235.412933	1202.440918	1307.430786	1214.923706	11.889517
235.788162	1197.091187	1317.164307	1216.186890	15.903396
236.163345	1193.301758	1320.507935	1216.409912	18.165905
236.538513	1195.233521	1319.244751	1206.601929	9.167241
236.913635	1197.611206	1312.260376	1199.023071	1.231466
237.288742	1196.942505	1309.585571	1196.942505	0.000000
237.663834	1191.444214	1304.012817	1187.134644	-3.828395
238.038879	1189.958130	1307.802124	1186.985962	-2.522121
238.413910	1192.558716	1315.380981	1192.855957	0.242009
238.788910	1196.868286	1316.644165	1206.676147	8.188511
239.163879	1202.069458	1317.089966	1209.202515	6.201552
239.538834	1201.846558	1314.638062	1206.378906	4.018342
239.913757	1198.800171	1325.857666	1199.766113	0.760240
240.288651	1200.954956	1341.238281	1208.533813	5.402536
240.663528	1200.657715	1351.046387	1207.567871	4.594865
241.038361	1196.793945	1366.798462	1210.391357	7.998265
241.413177	1193.524536	1384.110962	1204.595581	5.808937
241.787979	1199.394531	1414.649536	1213.363281	6.489396
242.162735	1194.490601	1437.163208	1212.768921	7.532091
242.537476	1190.849731	1452.989624	1210.614258	7.539687
242.912170	1187.729004	1465.101074	1197.834229	3.643202
243.286865	1186.837280	1482.042114	1205.858887	6.443528
243.661514	1186.391602	1493.484741	1210.094116	7.718347
244.036148	1187.134644	1488.506470	1210.911499	7.889542
244.410751	1196.422485	1474.908813	1205.487305	3.255032
244.785339	1201.995117	1457.967896	1202.515259	0.203202
245.159882	1201.252075	1450.091797	1206.973389	2.299196
245.534378	1201.549194	1447.639771	1205.041626	1.419165
245.908890	1200.806274	1471.639648	1206.379028	2.057632
246.283356	1200.360474	1503.515625	1207.345093	2.303975
246.657791	1195.976685	1551.292114	1210.317017	4.035944
247.032196	1191.741333	1598.846069	1206.379028	3.595560
247.406586	1194.787720	1662.300415	1202.069458	1.557549
247.780960	1191.667114	1722.188477	1193.450317	0.336123
248.155289	1189.363647	1747.599976	1201.252075	2.129641
248.529602	1183.047852	1741.878784	1207.716431	4.414319
248.903870	1195.159302	1695.067993	1215.963989	4.161697
249.278122	1198.725830	1649.148804	1207.716431	1.996035
249.652344	1201.995117	1596.096680	1204.521362	0.641014
250.026550	1195.456543	1558.648071	1206.899048	3.150543
250.400711	1199.989136	1534.871460	1205.561646	1.664020
250.774857	1201.400757	1520.456665	1207.642090	1.956188
251.148987	1197.759888	1518.004517	1209.648315	3.712296
251.523071	1190.255249	1513.769165	1212.917603	7.005063
251.897125	1186.837280	1524.766113	1211.208618	7.211974
252.271164	1195.159302	1534.574097	1205.784546	3.130460
252.645187	1201.177856	1558.127930	1207.196411	1.686105
253.019165	1196.645264	1576.852173	1204.075562	1.954277
253.393112	1194.787720	1585.099976	1203.109497	2.132082
253.767044	1195.307983	1572.914429	1199.840332	1.200284
254.140930	1201.475098	1541.781616	1205.041504	1.047998
254.514801	1196.942505	1523.131470	1204.670044	2.369038
254.888657	1196.125244	1503.738647	1209.722534	4.420253
255.262466	1192.855835	1508.642578	1201.029175	2.588247
255.636276	1192.038452	1503.589966	1203.035522	3.529776
256.010010	1192.781616	1508.493774	1197.834106	1.600347
256.383759	1195.159302	1519.861938	1198.651489	1.075503
256.757446	1196.050903	1540.221069	1203.629761	2.202067
257.131134	1190.775269	1566.895874	1211.877319	5.610448
257.504791	1188.546265	1589.409668	1219.753540	7.785015
257.878418	1192.187134	1620.319458	1217.970215	6.022223
258.252014	1190.849731	1657.099243	1225.400391	7.410337
258.625580	1193.821777	1694.027710	1226.960815	6.625079
258.999115	1196.496704	1755.401733	1226.366333	5.344312
259.372650	1199.840332	1837.803345	1210.688477	1.700435
259.746124	1190.478149	1936.105957	1202.812500	1.654224
260.119598	1183.122192	2027.572632	1196.645386	1.601419
260.493042	1179.852905	2101.429443	1199.617432	2.144643
260.866425	1188.620605	2141.181396	1210.316895	2.277680
261.239838	1191.295410	2115.547119	1208.682495	1.881207
261.613159	1198.948608	2026.160767	1210.688599	1.419224
261.986511	1194.639282	1921.914063	1200.657593	0.827515
262.359802	1194.862061	1844.342163	1204.595703	1.498682
262.733063	1191.146851	1812.466309	1202.812500	1.877561
263.106293	1197.685425	1800.875000	1209.871216	2.020226
263.479523	1194.564819	1787.277710	1210.985840	2.770485
263.852692	1197.314087	1784.156860	1210.317017	2.215743
264.225861	1195.010620	1772.862915	1204.595703	1.658743
264.598969	1203.852661	1773.754517	1204.521362	0.117336
264.972076	1204.447144	1764.764038	1205.487305	0.185638
265.345154	1204.372681	1772.045532	1205.933228	0.274902
265.718201	1201.474976	1786.683105	1203.927002	0.419001
266.091217	1197.091187	1816.329956	1201.400757	0.695946
266.464203	1191.146973	1851.846558	1207.344849	2.451625
266.837158	1188.843628	1894.124878	1215.889771	3.834802
267.210114	1190.255371	1932.836548	1225.846313	4.792869
267.583038	1194.342041	1960.328735	1221.313843	3.521184
267.955902	1189.958130	1966.272949	1221.313965	4.039062
268.328766	1188.174805	1969.913696	1212.026123	3.051059
268.701569	1189.586548	1969.022095	1211.357300	2.793143
269.074371	1193.598877	1982.842407	1204.224243	1.346272
269.447144	1195.679321	1986.185913	1203.704102	1.015144
269.819885	1195.307861	2008.030884	1204.298462	1.106232
270.192596	1201.549316	2029.504395	1206.304688	0.574351
270.565277	1202.218140	2077.132568	1212.768921	1.205922
270.937927	1208.310791	2138.655273	1208.162231	-0.015968
271.310577	1201.846558	2206.642334	1200.583374	-0.125715
271.683136	1200.731934	2290.901611	1201.995239	0.115882
272.055725	1192.038452	2350.640869	1201.623657	0.827308
272.428284	1194.341919	2380.659180	1208.385132	1.183765
272.800812	1191.592773	2357.179443	1210.019775	1.580921
273.173279	1188.843384	2322.554443	1219.901978	2.739551
273.545776	1186.242798	2302.789795	1222.799927	3.274124
273.918152	1189.735229	2282.059326	1214.552368	2.271957
274.290558	1196.199585	2252.784180	1211.060059	1.406463
274.662964	1199.691772	2237.403564	1205.190308	0.529871
275.035278	1199.245972	2224.474854	1204.744385	0.536311
275.407593	1191.146851	2239.260986	1202.886719	1.120094
275.779907	1190.106567	2248.400391	1208.310913	1.720160
276.152161	1190.998169	2273.885986	1213.214844	2.051614
276.524384	1191.443970	2305.910889	1211.357300	1.786803
276.896606	1188.769287	2340.981689	1212.917603	2.095822
277.268799	1193.227417	2373.451904	1199.320190	0.516239
277.640930	1202.515259	2388.015137	1203.035278	0.043865
278.013031	1202.812378	2398.863281	1194.267700	-0.714408
278.385162	1199.691772	2404.064697	1209.722656	0.832872
278.757233	1193.970337	2396.411377	1209.128296	1.260599
279.129272	1203.035522	2384.374268	1214.923706	1.006331
279.501282	1201.177856	2381.996582	1207.939331	0.572609
279.873230	1202.069458	2407.185303	1208.162109	0.505566
280.245178	1192.187134	2443.965088	1203.555542	0.908181
280.617126	1189.437988	2506.305176	1201.697876	0.930989
280.988983	1188.323364	2566.193115	1202.886841	1.056956
281.360870	1190.478149	2625.858154	1201.103516	0.740248
281.732697	1191.518433	2684.780273	1206.676147	1.015074
282.104492	1189.809448	2746.376953	1207.493530	1.136095
282.476288	1187.431763	2805.150391	1216.558472	1.800480
282.848053	1190.775391	2847.577393	1218.267456	1.659345
283.219757	1196.125244	2867.639404	1213.512085	1.040185
283.591461	1195.605103	2852.555908	1210.911499	0.923769
283.963135	1194.267700	2831.676758	1213.958008	1.202528
284.334747	1195.159302	2827.441406	1219.233398	1.474874
284.706360	1198.205688	2861.174805	1218.787598	1.237660
285.077942	1198.428589	2914.375732	1215.295288	0.982938
285.449524	1195.530762	2967.427734	1208.608032	0.738038
285.821014	1198.651489	3006.436768	1206.750488	0.448007
286.192535	1197.982788	3066.919189	1201.326294	0.178899
286.563995	1197.388428	3120.863037	1208.013672	0.552398
286.935425	1192.187256	3173.915039	1206.824829	0.738627
287.306824	1193.078735	3157.642578	1213.140625	1.021188
287.678223	1195.605103	3115.438721	1213.512085	0.932736
288.049561	1202.738159	3054.510498	1220.050659	0.934915
288.420898	1202.663818	3007.105469	1214.032227	0.630024
288.792145	1201.326294	2986.672119	1210.168335	0.495256
289.163452	1192.484253	2991.799072	1202.366577	0.549227
289.534668	1187.431641	3032.294189	1208.088013	1.119670
289.905914	1182.304810	3074.349365	1210.985840	1.515875
290.277039	1188.769165	3150.732422	1215.592407	1.367163
290.648193	1187.060181	3225.183594	1217.895874	1.512945
291.019318	1189.214966	3303.127197	1215.369751	1.237269
291.390381	1181.859131	3336.786377	1213.809326	1.482658
291.761475	1183.865356	3328.687500	1207.865112	1.118962
292.132507	1182.825073	3301.418701	1208.088013	1.192439
292.503510	1179.852905	3267.462158	1207.567749	1.327588
292.874481	1183.493652	3247.177734	1206.304565	1.105349
293.245422	1187.134644	3249.332275	1204.001221	0.817893
293.616364	1188.992188	3284.106201	1202.738159	0.656097
293.987213	1188.620605	3327.870361	1205.041504	0.767601
294.358093	1190.106689	3409.305908	1208.236572	0.816956
294.728943	1195.902344	3496.983154	1212.248901	0.710386
295.099731	1198.800049	3603.384521	1215.146729	0.679813
295.470490	1194.416138	3661.860596	1217.301392	0.927488
295.841248	1192.112793	3702.355713	1225.251831	1.320153
296.211975	1192.261475	3742.330811	1222.502686	1.185898
296.582642	1197.313965	3815.890625	1224.508911	1.038539
296.953308	1196.348145	3898.218018	1215.963989	0.726010
297.323883	1190.552612	3972.149170	1213.660645	0.830747
297.694519	1186.391602	4024.384033	1210.317017	0.843040
298.065063	1191.147095	4035.455078	1210.465698	0.679202
298.435608	1195.382202	3997.709229	1213.957886	0.662866
298.806122	1196.719604	3882.242920	1213.660522	0.630824
299.176575	1197.165405	3752.212891	1217.004272	0.776458
299.547028	1196.942505	3644.473877	1221.462402	1.001822
299.917450	1197.091187	3595.657227	1220.868042	0.991295
300.287872	1197.239746	3577.899170	1224.360229	1.139200
300.658234	1196.719604	3559.768799	1220.496460	1.006194
301.028564	1198.577271	3535.249023	1226.960815	1.214700
301.398865	1196.125244	3521.800049	1223.245728	1.166134
301.769135	1195.605103	3506.642578	1224.063110	1.231395
302.139374	1193.524536	3519.571289	1220.125000	1.143591
302.509583	1190.923950	3534.283203	1213.289063	0.954404
302.879791	1192.038452	3539.707764	1208.533691	0.702622
303.249939	1189.958008	3516.822266	1207.567749	0.756801
303.620087	1197.982788	3488.364014	1209.648315	0.509327
303.990173	1195.605103	3468.005127	1204.892944	0.408724
304.360260	1195.456421	3454.110352	1202.292358	0.302655
304.730286	1186.243042	3436.054932	1207.270630	0.934638
305.100281	1186.763062	3434.494385	1213.660645	1.196655
305.470276	1183.939575	3457.008057	1213.289185	1.291189
305.840179	1185.648560	3471.051514	1204.892822	0.842051
306.210144	1186.614502	3482.791260	1213.066162	1.151987
306.579987	1194.193359	3489.404297	1214.849487	0.899966
306.949890	1200.211914	3510.134766	1219.084839	0.817037
307.319702	1197.759766	3546.765869	1210.094238	0.525093
307.689484	1193.375977	3583.545898	1205.190308	0.494288
308.059265	1188.843628	3633.922852	1201.029297	0.498375
308.429016	1189.215088	3703.395752	1209.351074	0.800897
308.798737	1191.444092	3776.807373	1217.004272	0.988649
309.168396	1191.221191	3856.682861	1222.799927	1.184738
309.538055	1188.546265	3903.790771	1215.592651	0.996094
309.907684	1185.648560	3950.378174	1209.574097	0.865384
310.277313	1187.803345	3985.821045	1211.431641	0.844466
310.646851	1196.496704	4020.371826	1215.369629	0.668334
311.016388	1207.493530	4042.662842	1222.131226	0.516290
311.385895	1204.372681	4044.520264	1225.251953	0.735147
311.755371	1200.732056	4044.891602	1228.372559	0.971834
312.124817	1194.044800	4049.498291	1232.013428	1.329688
312.494232	1196.125244	4037.386963	1228.744141	1.148043
312.863617	1191.890015	4016.136719	1224.434570	1.152327
313.232971	1184.236694	3975.195557	1226.143433	1.501518
313.602295	1190.032349	3947.629150	1224.211548	1.239456
313.971619	1188.694946	3945.325928	1228.000977	1.425872
314.340820	1193.450317	3949.709717	1220.050659	0.965089
314.710083	1188.174927	3985.226563	1218.936157	1.099773
315.079285	1191.444214	4022.452148	1215.518188	0.850368
315.448486	1189.809570	4070.451904	1222.428345	1.132344
315.817596	1184.608276	4078.922607	1220.645142	1.245092
316.186707	1186.094360	4034.637939	1221.833984	1.254663
316.555786	1189.140747	3955.728516	1217.375610	1.020566
316.924866	1192.187134	3873.326904	1224.954590	1.222147
317.293884	1192.261353	3826.218750	1223.245728	1.176343
317.662872	1194.193359	3804.670898	1220.422119	1.004750
318.031830	1193.970459	3821.017334	1222.056763	1.069121
318.400757	1194.119019	3837.884033	1220.867920	1.011773
318.769684	1192.855957	3864.929932	1219.976196	1.014951
319.138550	1193.153076	3899.555420	1211.134399	0.664400
319.507416	1197.388306	3934.106201	1211.060181	0.499572
