Jaz Data File
++++++++++++++++++++++++++++++++++++
Date: Fri Jun 04 16:48:11 2021
User: jaz
Dark Spectrum Present: Yes
Reference Spectrum Present: Yes
Processed Spectrum Present: Yes
Spectrometers: JAZA3586
Integration Time (usec): 24900 (JAZA3586)
Spectra Averaged: 10 (JAZA3586)
Boxcar Smoothing: 1 (JAZA3586)
Correct for Electrical Dark: No (JAZA3586)
Strobe/Lamp Enabled: Yes (JAZA3586)
Correct for Detector Non-linearity: No (JAZA3586)
Correct for Stray Light: No (JAZA3586)
Number of Pixels in Processed Spectrum: 2048
>>>>>Begin Processed Spectral Data<<<<<
W	D	R	S	P
191.335022	0.000000	0.000000	0.000000	0.000000
191.713211	231.155762	234.127869	233.682068	85.000511
192.091385	464.763519	467.438385	471.822266	263.891602
192.469528	701.492004	705.652893	710.705566	221.432556
192.847641	713.603333	712.860291	717.467102	-519.993408
193.225739	723.857117	731.064453	726.680664	39.176018
193.603790	734.482422	738.271790	735.076843	15.686559
193.981842	733.739441	737.900330	739.089172	128.571854
194.359863	736.117004	734.185120	740.426575	-223.075958
194.737854	737.974609	738.123230	741.466797	2349.733154
195.115829	740.500916	744.736145	747.336731	161.403656
195.493774	744.141785	746.147949	755.287109	555.553894
195.871704	743.472961	746.593750	754.246887	345.230865
196.249603	746.445068	755.361511	750.977600	50.833408
196.627457	747.188171	758.556458	744.810547	-20.914537
197.005310	747.188171	764.203430	751.051941	22.707674
197.383133	750.606140	760.339783	756.698914	62.594997
197.760910	754.246887	757.293274	764.872253	348.785858
198.138687	752.909485	756.327393	764.797852	347.825867
198.516449	751.943542	754.989990	760.116882	268.290833
198.894180	745.330566	752.612305	751.943542	90.815895
199.271866	748.154053	751.572083	739.237793	-260.859619
199.649536	744.736145	746.816650	735.522644	-442.849182
200.027191	745.553467	751.051941	726.532043	-345.940033
200.404816	740.500916	744.364685	734.631042	-151.920883
200.782410	742.432800	759.448059	740.055115	-13.973843
201.159988	746.370850	763.311829	751.126221	28.070227
201.537537	747.931152	776.314880	750.531799	9.162457
201.915070	745.999268	771.559509	749.045715	11.918697
202.292557	737.008606	778.320984	747.708313	25.899519
202.670029	728.835388	777.726563	749.268616	41.793285
203.047485	720.885010	782.333313	757.367615	59.371216
203.424911	718.358704	770.667786	755.212891	70.454659
203.802292	723.188416	771.633789	751.200500	57.822002
204.179688	728.538147	771.930969	743.175781	33.732845
204.557037	728.835388	782.556335	741.169678	22.959925
204.934357	735.374023	782.704895	740.426575	10.674959
205.311661	737.603088	775.571777	744.290344	17.612555
205.688934	741.912659	776.091980	753.058105	32.608742
206.066177	736.191406	769.999084	754.915710	55.384769
206.443390	740.278015	775.051758	751.274841	31.623936
206.820587	744.216064	767.101318	744.810486	2.597399
207.197769	743.101501	768.810242	750.234619	27.745886
207.574921	737.751709	772.302429	752.612305	43.010960
207.952042	727.052185	774.159973	750.085938	48.895847
208.329147	726.309082	773.045471	746.816650	43.879230
208.706223	732.179016	770.073425	750.531738	48.431213
209.083267	734.036621	768.364441	757.293396	67.749062
209.460297	734.333801	767.992920	763.311829	86.092651
209.837280	723.485596	767.398499	755.212891	72.250504
210.214264	726.457703	769.479004	753.503906	62.867004
210.591217	725.640381	767.101318	742.061279	39.605709
210.968124	722.668274	765.912415	748.302734	59.278461
211.345016	723.188416	764.054871	748.897156	62.909153
211.721893	720.662109	770.370605	759.745300	78.624771
212.098724	717.095520	765.986755	757.887695	83.434532
212.475555	702.383606	762.048767	753.503906	85.678642
212.852356	708.773682	761.974426	748.079773	73.882599
213.229126	711.448547	765.838135	745.033386	61.748657
213.605865	725.417480	768.661621	742.655701	39.862556
213.982590	719.027527	761.602844	735.745605	39.267067
214.359283	722.445313	756.104492	738.346130	47.240658
214.735931	720.141907	760.785583	744.067444	58.866566
215.112579	718.284363	756.104492	745.256348	71.316483
215.489197	719.324646	761.825867	741.392578	51.923054
215.865799	714.049133	760.934143	742.135559	59.904915
216.242355	717.541321	764.203430	752.166504	74.204071
216.618896	722.816895	761.751465	759.299500	93.702347
216.995407	731.733215	762.866028	748.748535	54.653976
217.371902	732.104675	764.277832	741.838379	30.254114
217.748367	733.219238	768.736023	736.042725	7.949724
218.124802	732.104675	763.683350	738.940613	21.647322
218.501236	736.934387	768.067200	743.027161	19.570263
218.877609	731.510315	760.265442	742.358459	37.725948
219.253983	727.572266	757.516174	744.587585	56.823978
219.630295	726.309082	750.829041	738.346191	49.091068
220.006592	721.479431	749.342957	739.832214	65.866692
220.382889	720.142029	754.395508	743.770264	68.980537
220.759140	717.095520	761.751465	750.160339	74.043488
221.135391	717.764343	770.816406	750.606140	61.904842
221.511581	717.689941	775.497498	749.120056	54.370255
221.887772	714.420654	770.890808	752.909485	68.157829
222.263931	711.522888	761.454285	747.931152	72.916573
222.640060	704.984192	756.253113	748.748535	85.362328
223.016159	706.470276	760.785583	742.284180	65.937035
223.392212	709.145203	769.627625	751.274719	69.655800
223.768265	723.188416	774.457275	749.640137	51.594128
224.144302	723.485596	775.200378	750.308899	51.867767
224.520294	731.881836	767.918640	739.980774	22.474073
224.896286	728.389648	763.757751	748.748535	57.562847
225.272217	728.315247	766.135315	755.287292	71.316757
225.648148	724.525818	769.701843	759.968262	78.454102
226.024048	722.593933	772.599609	751.126160	57.057976
226.399902	718.953125	775.943359	740.798096	38.331078
226.775772	723.857178	779.064026	742.507141	33.781975
227.151581	729.206970	777.726563	745.033386	32.618610
227.527374	734.036621	776.983582	750.680359	38.754169
227.903137	730.395752	775.794739	751.720703	46.972305
228.278870	730.990234	779.807129	755.510071	50.228176
228.654572	736.042786	772.302490	754.098328	49.795059
229.030273	733.590759	765.912415	750.160339	51.264641
229.405930	723.782776	759.893982	744.067383	56.172611
229.781555	724.674500	762.048767	748.897156	64.811050
230.157181	724.302917	765.838135	755.955872	76.207512
230.532761	731.658875	771.262207	758.853699	68.668022
230.908325	720.885010	776.983582	753.429504	58.013054
231.283859	720.736389	776.091980	744.438965	42.818756
231.659332	713.603333	773.862793	745.627747	53.144211
232.034821	725.120300	770.816406	746.370850	46.504070
232.410263	722.668274	767.770020	754.915710	71.499306
232.785690	729.875671	768.438721	745.999329	41.811157
233.161087	724.228577	761.157043	739.460693	41.247627
233.536469	720.736328	767.472839	743.175781	48.012684
233.911804	716.501160	763.163269	747.708313	66.879005
234.287140	719.621826	766.878418	756.327454	77.673035
234.662430	724.377258	766.655457	749.194336	58.699467
235.037704	723.485596	770.890625	749.788818	55.486145
235.412933	719.324646	778.023743	739.757874	34.810123
235.788162	718.210144	773.268372	733.665039	28.070091
236.163345	720.142029	767.027039	738.866211	39.936394
236.538513	718.953125	764.054932	746.593750	61.284962
236.913635	721.256531	774.903076	750.531738	54.570538
237.288742	723.931458	778.172363	750.308899	48.630165
237.663834	724.748779	776.017578	751.200500	51.594189
238.038879	730.024231	771.410889	750.085938	48.473850
238.413910	727.646545	774.754456	742.655762	31.861351
238.788910	733.145020	777.800842	747.336731	31.780203
239.163879	730.692932	778.692444	749.342957	38.854614
239.538834	735.002502	776.166199	757.813477	55.415272
239.913757	728.092346	775.200256	755.138611	57.413425
240.288651	729.578430	777.057861	751.646301	46.478802
240.663528	723.337097	777.726563	748.154114	45.628353
241.038361	729.578430	778.915466	751.497742	44.427704
241.413177	728.984070	784.190918	750.828918	39.569092
241.787979	732.327637	787.608887	755.881592	42.607494
242.162735	732.699219	789.243469	749.937317	30.486032
242.537476	731.881775	785.156921	754.692688	42.817177
242.912170	731.807556	787.237305	749.640137	32.171497
243.286865	727.869446	788.054688	753.058105	41.851887
243.661514	726.532043	789.689270	756.401672	47.294079
244.036148	730.024231	789.317810	754.321228	40.977451
244.410751	730.767273	788.128906	756.550293	44.948196
244.785339	733.516418	786.419983	759.076599	48.314667
245.159882	724.823059	798.977234	757.962097	44.689377
245.534378	722.222412	799.348694	750.680359	36.897858
245.908890	715.758057	795.782166	743.993103	35.283176
246.283356	716.724060	782.407654	746.222168	44.909401
246.657791	721.553711	782.779114	745.925049	39.805923
247.032196	730.024231	790.357971	750.011719	33.128208
247.406586	734.928223	803.509583	746.816650	17.334780
247.780960	726.383362	808.710754	741.987000	18.953154
248.155289	717.987122	818.444519	742.655762	24.556320
248.529602	717.689941	815.620911	741.987000	24.810392
248.903870	725.268860	823.794250	749.342957	24.434408
249.278122	727.869446	818.370178	746.519470	20.607595
249.652344	716.501160	814.655029	748.079834	32.172623
250.026550	713.008972	800.983337	745.627747	37.077591
250.400711	707.659180	798.679932	747.559631	43.836655
250.774857	721.033630	795.187744	757.144714	48.697346
251.148987	722.445374	795.633484	761.454285	53.299519
251.523071	726.383362	799.274414	758.110657	43.527008
251.897125	723.262695	804.475586	744.513245	26.166473
252.271164	727.200745	806.704651	740.203674	16.355083
252.645187	728.909668	806.778992	736.785828	10.114586
253.019165	729.578430	810.122620	745.181946	19.372616
253.393112	724.600098	812.277344	748.971375	27.796581
253.767044	723.336975	809.899719	750.828918	31.759556
254.140930	725.045959	806.704590	748.005554	28.116556
254.514801	726.309082	810.122559	744.959045	22.251747
254.888657	735.374023	814.060608	752.240723	21.435291
255.262466	731.361633	814.952209	749.417236	21.600046
255.636276	734.408142	813.911926	756.698914	28.037373
256.010010	727.943787	813.837708	760.636963	38.062271
256.383759	733.144958	821.565186	767.249817	38.571331
256.757446	724.600159	823.645691	761.454285	37.209278
257.131134	723.114075	827.360840	753.132324	28.795378
257.504791	724.005676	835.162598	752.017883	25.200596
257.878418	723.857117	840.140808	753.503906	25.495226
258.252014	718.804504	848.388428	754.246887	27.350910
258.625580	711.448547	856.561768	748.599915	25.601643
258.999115	716.724060	875.731750	740.798157	15.140209
259.372650	717.318542	890.666748	743.472961	15.087793
259.746124	723.708496	902.480896	746.222229	12.593517
260.119598	733.516418	926.257751	761.974426	14.764871
260.493042	737.900208	938.666321	763.014648	12.509303
260.866425	730.172852	952.783752	763.906250	15.153525
261.239838	711.448547	941.266907	759.299500	20.821205
261.613159	713.528992	925.886230	758.927979	21.378592
261.986511	715.386536	899.285828	759.968262	24.242468
262.359802	725.491699	881.824707	757.887695	20.722429
262.733063	731.584534	879.446960	752.092102	13.869357
263.106293	734.408142	883.087830	749.565918	10.194921
263.479523	732.104736	890.740967	750.085938	11.334864
263.852692	721.702332	889.997986	744.736145	13.686517
264.225861	724.005676	890.815247	751.349121	16.392012
264.598969	728.612488	893.044434	742.655701	8.540441
264.972076	734.482422	900.325989	747.113831	7.616460
265.345154	734.333801	894.604736	738.791931	2.781621
265.718201	729.281189	896.016541	739.906433	6.372520
266.091217	732.699158	898.691406	745.553528	7.743958
266.464203	733.144958	918.976074	752.760925	10.555803
266.837158	735.671204	926.109131	757.293396	11.353931
267.210114	726.011780	929.155579	752.463684	13.021271
267.583038	720.959290	928.263977	754.618469	16.236574
267.955902	718.953125	932.350586	753.355286	16.121166
268.328766	715.015137	941.787048	761.231384	20.380058
268.701569	712.414551	941.341125	753.503906	17.948706
269.074371	713.751953	946.839600	753.652527	17.118271
269.447144	720.884949	951.594971	742.729980	9.468610
269.819885	722.445313	966.529785	745.553528	9.467302
270.192596	725.863281	979.384094	746.965271	8.323573
270.565277	721.627991	996.622375	750.754700	10.591747
270.937927	723.039795	1007.544861	748.079773	8.801242
271.310577	710.854065	1030.801636	750.383118	12.354854
271.683136	714.494934	1047.891235	761.157043	13.995989
272.055725	711.299988	1081.550415	764.203430	14.288557
272.428284	717.392761	1092.695801	767.398438	13.324080
272.800812	719.250305	1101.389160	759.819580	10.616370
273.173279	723.931396	1073.228516	766.804016	12.273969
273.545776	728.389587	1071.445190	764.352051	10.482984
273.918152	724.302917	1064.906616	766.135315	12.281838
274.290558	725.268860	1075.606079	759.448059	9.756085
274.662964	724.302917	1056.213135	757.813416	10.096253
275.035278	729.801270	1054.578491	750.011658	6.222847
275.407593	725.714661	1056.064575	750.457520	7.489894
275.779907	725.863281	1070.850708	757.144775	9.067430
276.152161	723.411316	1079.395630	763.163269	11.166771
276.524384	726.977844	1103.098145	769.627625	11.339398
276.896606	722.891113	1111.717285	766.135437	11.121762
277.268799	719.919128	1122.639771	769.033203	12.195569
277.640930	721.776672	1119.370483	761.825867	10.072892
278.013031	724.971680	1133.488037	764.129211	9.585303
278.385162	726.309082	1127.246582	767.027039	10.155686
278.757233	725.789001	1133.710938	764.129211	9.398909
279.129272	726.829163	1127.618042	756.030212	7.285893
279.501282	723.559875	1138.020386	755.732971	7.762644
279.873230	729.058289	1142.850098	759.373840	7.326281
280.245178	722.668274	1156.670532	757.590576	8.046572
280.617126	728.166687	1174.205933	751.943542	5.330665
280.988983	714.420593	1199.617432	751.126160	7.565088
281.360870	717.615662	1234.762695	757.441895	7.701143
281.732697	718.953125	1270.947876	752.389343	6.057343
282.104492	728.538269	1296.731079	747.113770	3.269225
282.476288	728.389465	1313.449097	745.256287	2.882923
282.848053	724.748718	1322.662598	752.240723	4.597987
283.219757	717.318420	1323.480103	757.664856	6.656052
283.591461	719.324707	1321.250977	759.150879	6.616454
283.963135	723.262695	1319.318970	756.104492	5.509849
284.334747	723.114075	1329.349976	762.197266	6.446862
284.706360	723.188293	1350.154663	760.934143	6.020395
285.077942	724.971619	1370.588013	761.528564	5.662333
285.449524	731.881836	1402.315063	755.064270	3.457829
285.821014	732.030457	1420.519409	754.915710	3.323983
286.192535	727.646545	1451.355103	750.680420	3.182755
286.563995	726.383484	1465.472656	748.451355	2.985820
286.935425	722.965515	1486.871704	746.519470	3.083357
287.306824	719.770508	1484.791382	752.315125	4.254082
287.678223	726.680664	1477.806763	747.262451	2.740124
288.049561	733.739441	1457.076294	750.457458	2.311235
288.420898	730.024231	1444.667847	751.720642	3.035976
288.792145	724.748718	1441.770020	759.225159	4.808287
289.163452	721.107910	1448.457153	762.271667	5.659421
289.534668	726.011902	1472.605591	756.624695	4.100328
289.905914	726.680603	1497.348267	761.751465	4.550712
290.277039	725.045898	1535.094238	762.866028	4.668873
290.648193	731.584656	1572.914429	768.364441	4.371625
291.019318	732.699158	1598.028687	768.587402	4.147350
291.390381	730.544373	1617.570313	765.763916	3.970520
291.761475	727.126465	1609.471313	758.036438	3.503162
292.132507	714.123474	1606.127808	764.946533	5.697625
292.503510	712.265930	1582.573730	768.215820	6.428747
292.874481	714.346375	1570.239380	782.630554	7.978121
293.245422	715.386536	1574.326050	771.262207	6.505193
293.616364	723.485596	1596.022461	771.039368	5.450059
293.987213	713.380432	1635.254395	761.454346	5.214803
294.358093	716.724060	1671.291138	759.002258	4.429044
294.728943	715.163635	1716.913086	750.754700	3.552891
295.099731	720.216309	1765.358398	746.445129	2.509594
295.470490	720.736328	1793.147827	748.822815	2.619003
295.841248	720.885010	1824.354858	751.572021	2.780956
296.211975	731.287354	1840.106934	758.482239	2.452598
296.582642	735.076843	1885.803101	762.197327	2.356814
296.953308	736.860107	1931.127808	765.689453	2.413977
297.323883	734.853943	1979.498657	763.609070	2.310308
297.694519	733.070618	2011.597656	767.918640	2.725638
298.065063	733.070618	2009.739868	766.655457	2.630661
298.435608	727.497986	1988.563843	769.404602	3.323111
298.806122	726.977844	1931.573608	765.243713	3.176657
299.176575	730.692871	1875.029175	755.138489	2.136227
299.547028	733.962219	1836.837524	752.092224	1.643885
299.917450	734.928223	1825.692261	746.296570	1.042237
300.287872	726.160461	1823.165894	750.606140	2.228401
300.658234	728.240967	1817.295898	749.417236	1.944463
301.028564	732.847717	1812.317749	751.869324	1.762125
301.398865	737.825989	1815.586914	759.893982	2.047578
301.769135	729.504089	1809.791382	756.253113	2.476103
302.139374	722.148132	1811.500366	752.983704	2.830634
302.509583	712.488770	1810.088501	751.274719	3.533706
302.879791	711.076965	1809.940063	758.705078	4.334309
303.249939	707.733398	1799.983398	760.859863	4.863947
303.620087	717.838562	1789.209595	761.900085	4.112629
303.990173	721.330811	1775.760742	753.132385	3.015997
304.360260	720.290527	1785.123047	748.822937	2.679521
304.730286	722.668274	1782.819702	742.730042	1.892349
305.100281	722.519592	1798.125977	749.045715	2.466155
305.470276	735.968445	1800.875000	750.011719	1.318733
305.840179	731.361633	1820.119507	749.937439	1.706147
306.210144	726.829285	1836.540405	750.680481	2.149316
306.579987	720.290588	1852.663940	756.476074	3.195544
306.949890	712.934631	1870.868164	760.562683	4.113194
307.319702	725.491760	1886.323120	762.123047	3.155608
307.689484	729.652771	1911.660278	767.992859	3.243641
308.059265	737.825989	1935.288696	768.884521	2.593695
308.429016	727.349365	1967.907593	770.667786	3.491849
308.798737	723.411316	2000.526489	774.160095	3.973704
309.168396	723.634277	2049.046143	781.070251	4.333444
309.538055	726.011902	2088.575195	781.144531	4.046244
309.907684	725.863281	2122.308594	771.782410	3.288287
310.277313	723.039795	2149.428955	764.649353	2.917125
310.646851	727.275085	2172.017334	766.061096	2.684632
311.016388	728.686829	2186.134766	767.770020	2.681618
311.385895	724.525879	2176.549561	771.633789	3.244293
311.755371	727.646484	2178.778809	771.113586	2.995392
312.124817	731.584534	2176.772461	776.612061	3.115686
312.494232	733.144958	2178.852783	776.314758	2.986067
312.863617	733.813660	2163.398193	773.268494	2.759881
313.232971	732.104675	2149.800781	774.011414	2.955975
313.602295	741.095398	2141.627441	770.965027	2.132735
313.971619	738.271790	2153.441406	769.256104	2.189442
314.340820	737.677429	2161.763428	758.705078	1.476572
314.710083	722.742615	2190.369873	756.773254	2.318752
315.079285	716.649719	2216.450195	761.751465	3.007183
315.448486	716.278259	2255.013428	763.832031	3.090446
315.817596	725.268860	2255.756348	768.513000	2.825514
316.186707	730.544373	2227.892822	774.011475	2.902938
316.555786	729.652649	2188.066650	776.909241	3.240273
316.924866	726.309082	2146.605469	781.961853	3.918391
317.293884	714.717834	2128.772949	770.965027	3.977723
317.662872	712.488770	2122.754395	769.999023	4.077973
318.031830	715.609558	2140.735596	762.122986	3.263812
318.400757	726.309082	2149.280518	765.095032	2.725701
318.769684	727.720764	2160.277344	766.804016	2.728217
319.138550	721.999512	2182.791016	759.299500	2.553409
319.507416	717.764343	2212.511963	761.677185	2.937810
319.876190	715.163635	2229.675781	752.463623	2.462838
320.244995	722.891113	2222.022949	759.745300	2.458369
320.613770	725.640320	2197.800293	756.327393	2.084493
320.982483	736.042786	2178.630127	759.299500	1.612153
321.351166	735.745544	2161.391846	746.965271	0.786992
321.719818	732.847717	2159.682861	750.680420	1.249808
322.088440	725.491760	2157.082275	753.949707	1.987855
322.457062	721.479492	2179.893066	771.262207	3.413484
322.825623	721.256531	2214.740967	768.438721	3.159202
323.194183	714.569336	2254.790283	770.519226	3.632589
323.562653	712.340271	2298.183105	761.900085	3.125140
323.931183	710.705566	2351.978271	760.339661	3.024122
324.299591	715.981018	2422.343018	755.510071	2.316569
324.668060	720.662109	2479.556396	759.225281	2.192467
325.036407	725.268799	2521.908936	757.739197	1.807284
