Jaz Data File
++++++++++++++++++++++++++++++++++++
Date: Fri Jun 04 15:59:19 2021
User: jaz
Dark Spectrum Present: Yes
Reference Spectrum Present: Yes
Processed Spectrum Present: Yes
Spectrometers: JAZA3586
Integration Time (usec): 24700 (JAZA3586)
Spectra Averaged: 10 (JAZA3586)
Boxcar Smoothing: 1 (JAZA3586)
Correct for Electrical Dark: No (JAZA3586)
Strobe/Lamp Enabled: Yes (JAZA3586)
Correct for Detector Non-linearity: No (JAZA3586)
Correct for Stray Light: No (JAZA3586)
Number of Pixels in Processed Spectrum: 2048
>>>>>Begin Processed Spectral Data<<<<<
W	D	R	S	P
191.335022	0.000000	0.000000	0.000000	0.000000
191.713211	406.287323	398.113983	405.395660	10.909403
192.091385	811.162842	800.463196	812.946106	-16.666571
192.469528	1212.546265	1209.945435	1218.787598	-239.974655
192.847641	1212.248901	1219.604858	1225.697754	182.829407
193.225739	1210.762817	1231.790405	1228.223999	83.039398
193.603790	1224.286011	1236.694458	1233.648071	75.449089
193.981842	1230.453003	1241.227051	1236.620239	57.241589
194.359863	1241.449707	1247.022583	1235.431274	-107.995094
194.737854	1239.889526	1250.811890	1243.976074	37.414501
195.115829	1238.180542	1254.675659	1240.261108	12.613226
195.493774	1239.889526	1251.777954	1249.400269	80.000000
195.871704	1244.570679	1251.332153	1244.273315	-4.397906
196.249603	1251.035034	1250.440552	1247.765625	549.958923
196.627457	1250.143188	1249.326050	1249.771729	45.458618
197.005310	1247.394043	1244.199097	1245.759277	51.167233
197.383133	1247.914185	1243.530396	1242.341431	127.121857
197.760910	1248.359985	1246.353882	1232.533447	788.919312
198.138687	1240.261108	1248.508667	1234.465332	-70.272629
198.516449	1235.654419	1252.372314	1242.713013	42.221783
198.894180	1235.431396	1252.595215	1242.861572	43.289761
199.271866	1241.969971	1249.548828	1240.632568	-17.646490
199.649536	1251.480713	1243.307495	1240.781128	130.910309
200.027191	1250.514771	1232.905029	1232.087769	104.640961
200.404816	1249.400269	1233.796753	1234.836914	93.333801
200.782410	1236.323120	1246.725220	1236.248657	-0.715845
201.159988	1233.648071	1269.536255	1254.081421	56.936150
201.537537	1227.555298	1287.740356	1256.756226	48.518566
201.915070	1229.561401	1287.740356	1253.858398	41.762520
202.292557	1222.725586	1282.836548	1251.926514	48.578373
202.670029	1230.453003	1278.526978	1256.533325	54.250397
203.047485	1223.245728	1276.966675	1255.641724	60.304214
203.424911	1228.521240	1276.669434	1255.418823	55.864159
203.802292	1223.171387	1272.211060	1249.846069	54.394089
204.179688	1229.041382	1271.245239	1250.366211	50.528152
204.557037	1226.738037	1269.239136	1246.873901	47.377281
204.934357	1223.914429	1269.239014	1254.081299	66.557411
205.311661	1223.988770	1272.062500	1250.143188	54.404804
205.688934	1221.239502	1271.319458	1255.418823	68.249504
206.066177	1224.062988	1272.211182	1244.942017	43.364094
206.443390	1225.028931	1276.372070	1243.604614	36.179485
206.820587	1228.669800	1278.824097	1235.579956	13.777795
207.197769	1231.344604	1279.270020	1239.443726	16.899427
207.574921	1228.669800	1274.886108	1238.031860	20.257050
207.952042	1225.994751	1276.669434	1238.180542	24.047098
208.329147	1214.329468	1279.715820	1237.140259	34.886166
208.706223	1224.137329	1287.591919	1247.839844	37.353508
209.083267	1230.378784	1281.573364	1252.520996	43.251087
209.460297	1235.951416	1276.372192	1253.041138	42.279549
209.837280	1227.629517	1266.564087	1246.502441	48.473438
210.214264	1223.319946	1266.415649	1252.966797	68.793053
210.591217	1226.812134	1266.712891	1255.493042	71.880615
210.968124	1229.635742	1274.068726	1248.062866	41.471722
211.345016	1222.948364	1274.886108	1238.626343	30.186098
211.721893	1219.827759	1275.480591	1234.985474	27.236197
212.098724	1215.666870	1275.480469	1244.124878	47.577824
212.475555	1219.902100	1274.440308	1244.347656	44.822807
212.852356	1221.536743	1277.783813	1249.548950	49.802074
213.229126	1222.205566	1267.901611	1248.508667	57.561001
213.605865	1229.189941	1270.279297	1245.908081	40.687275
213.982590	1231.270386	1261.363037	1238.551880	24.196918
214.359283	1233.722290	1261.140137	1234.614014	3.252347
214.735931	1223.840088	1262.180298	1246.799683	59.883854
215.112579	1221.388184	1271.393921	1249.548828	56.314827
215.489197	1210.911499	1270.056519	1253.932739	72.738571
215.865799	1210.317017	1268.793335	1240.409668	51.461262
216.242355	1208.533813	1268.496094	1241.375610	54.770760
216.618896	1213.883545	1276.446411	1238.923462	40.023609
216.995407	1221.982544	1283.356567	1248.434204	43.099113
217.371902	1221.165161	1280.904663	1245.685059	41.044697
217.748367	1220.942261	1270.650879	1251.703613	61.883339
218.124802	1214.477905	1265.523926	1248.657227	66.957855
218.501236	1212.620361	1270.873779	1250.588989	65.178368
218.877609	1213.289063	1283.876831	1240.855469	39.052666
219.253983	1215.963989	1275.480469	1237.066040	35.455811
219.630295	1220.868042	1276.000610	1235.282715	26.145477
220.006592	1222.502686	1272.879883	1231.864868	18.584167
220.382889	1216.929932	1283.653809	1230.304443	20.044567
220.759140	1218.564575	1279.864380	1232.607910	22.909266
221.135391	1218.341797	1275.034668	1241.672729	41.153202
221.511581	1218.936157	1268.570313	1245.685059	53.892124
221.887772	1217.227051	1265.449585	1242.118530	51.617943
222.263931	1215.889771	1274.365967	1240.781128	42.566650
222.640060	1225.103271	1272.731323	1244.050415	39.781479
223.016159	1226.069214	1265.152344	1244.793579	47.909073
223.392212	1229.932983	1260.174194	1240.038208	33.415409
223.768265	1224.062988	1267.604492	1237.511841	30.887432
224.144302	1218.861694	1274.366089	1241.524292	40.830276
224.520294	1214.032104	1276.595093	1243.827637	47.624855
224.896286	1214.255005	1282.167847	1242.787231	42.013008
225.272217	1224.880371	1287.740356	1250.886353	41.371281
225.648148	1227.332397	1293.238770	1250.291992	34.836685
226.024048	1224.657349	1285.511353	1251.034912	43.345650
226.399902	1219.753540	1288.483521	1243.901855	35.135052
226.775772	1217.821533	1286.402954	1248.062744	44.095341
227.151581	1224.954590	1289.895264	1247.839844	35.240246
227.527374	1216.632813	1295.616577	1247.616821	39.228325
227.903137	1208.533813	1300.074829	1246.502441	41.477177
228.278870	1203.555542	1302.601074	1246.725342	43.585812
228.654572	1210.168457	1310.328491	1243.381714	33.160191
229.030273	1221.908203	1324.520386	1248.285767	25.706074
229.405930	1225.548950	1344.359131	1242.341431	14.133873
229.781555	1222.874146	1355.950439	1245.165039	16.750462
230.157181	1212.620361	1364.940918	1245.462280	21.561054
230.532761	1215.592529	1365.981323	1249.028809	22.233225
230.908325	1213.883545	1361.374390	1244.793579	20.957256
231.283859	1212.397461	1352.978271	1240.706787	20.137403
231.659332	1214.998169	1341.684326	1236.991699	17.360641
232.034821	1212.620483	1329.572998	1243.010132	25.984604
232.410263	1223.691406	1315.901245	1243.901855	21.917889
232.785690	1214.180786	1315.678223	1254.973022	40.190411
233.161087	1222.056885	1322.439819	1248.582886	26.424810
233.536469	1217.747192	1330.315918	1241.004028	20.660122
233.911804	1221.388184	1331.058960	1230.898926	8.672084
234.287140	1219.233276	1337.820435	1229.412842	8.584037
234.662430	1219.456177	1338.637817	1231.121704	9.788024
235.037704	1214.180786	1342.798828	1234.836792	16.059959
235.412933	1212.174561	1340.941162	1237.214478	19.445972
235.788162	1213.586426	1345.102173	1241.598267	21.299229
236.163345	1216.484131	1343.616089	1236.099976	15.429515
236.538513	1221.611084	1343.170288	1233.648071	9.902161
236.913635	1224.211792	1338.489258	1235.802856	10.142914
237.288742	1225.623535	1345.622192	1242.341431	13.931735
237.663834	1218.713257	1341.609863	1247.988403	23.820955
238.038879	1213.883423	1336.854492	1248.211426	27.915512
238.413910	1213.734863	1337.820435	1246.279541	26.227608
238.788910	1219.753540	1338.637695	1250.589233	25.937597
239.163879	1225.028931	1348.520020	1245.685181	16.726915
239.538834	1225.697632	1348.817261	1250.811890	20.398256
239.913757	1223.245728	1361.002808	1248.657104	18.446512
240.288651	1213.066284	1368.730347	1242.935913	19.188519
240.663528	1212.248901	1380.321655	1243.456055	18.567646
241.038361	1214.477905	1388.940796	1240.781128	15.076686
241.413177	1226.515137	1409.894165	1249.771729	12.682253
241.787979	1228.595459	1430.698853	1248.285645	9.742630
242.162735	1221.090942	1461.906250	1250.589111	12.249291
242.537476	1217.895874	1476.692261	1252.075195	13.207032
242.912170	1212.100342	1506.413452	1251.332153	13.329957
243.286865	1225.697754	1524.617554	1244.570679	6.313708
243.661514	1221.908203	1541.335571	1246.502441	7.699478
244.036148	1228.149658	1525.137695	1249.325928	7.130344
244.410751	1227.926758	1496.456665	1258.093628	11.234082
244.785339	1227.332397	1479.515625	1256.458984	11.549771
245.159882	1225.623413	1466.587036	1255.716064	12.488462
245.534378	1222.428345	1478.326782	1254.824341	12.659708
245.908890	1225.103271	1486.648804	1250.291870	9.630674
246.283356	1225.548950	1514.215210	1248.731567	8.030941
246.657791	1222.279663	1556.344727	1241.004028	5.605006
247.032196	1220.422119	1624.480469	1246.651001	6.491360
247.406586	1214.329346	1706.064819	1243.678833	5.968552
247.780960	1209.425293	1752.132446	1250.589111	7.584904
248.155289	1210.762817	1768.479126	1242.341553	5.662150
248.529602	1212.843262	1744.330688	1247.468384	6.514759
248.903870	1214.998047	1708.293945	1242.415771	5.558069
249.278122	1218.490234	1659.700073	1256.310425	8.571928
249.652344	1223.914429	1619.279297	1252.743896	7.291864
250.026550	1221.165161	1591.861450	1256.310425	9.480878
250.400711	1222.948608	1571.874023	1246.799683	6.835579
250.774857	1227.406616	1553.744141	1243.753296	5.009133
251.148987	1240.260986	1548.171509	1238.849243	-0.458491
251.523071	1235.134155	1541.409790	1240.484009	1.746745
251.897125	1221.090942	1552.406738	1249.994751	8.723946
252.271164	1206.378906	1565.929688	1255.047363	13.535907
252.645187	1205.635986	1594.239258	1255.047363	12.715121
253.019165	1217.821655	1611.774780	1250.812134	8.374214
253.393112	1229.635742	1607.167847	1248.657349	5.038408
253.767044	1231.196167	1583.390991	1245.016479	3.924053
254.140930	1226.292114	1556.047485	1245.239258	5.745818
254.514801	1218.044556	1541.707153	1241.078369	7.116613
254.888657	1219.530640	1530.338867	1239.592285	6.454670
255.262466	1220.422241	1529.075684	1231.567505	3.610931
255.636276	1214.923828	1523.205933	1236.322998	6.941425
256.010010	1210.242798	1537.694824	1237.214722	8.236909
256.383759	1213.809204	1547.279907	1235.654297	6.550828
256.757446	1220.422241	1572.245483	1231.419067	3.125668
257.131134	1219.381958	1586.363159	1226.737915	2.004451
257.504791	1218.564575	1610.288574	1234.019653	3.945400
257.878418	1220.570801	1634.882813	1240.558228	4.824245
258.252014	1226.440796	1676.789429	1245.833740	4.306207
258.625580	1221.536743	1724.120483	1254.973022	6.652877
258.999115	1230.824585	1784.528442	1256.607544	4.656453
259.372650	1231.121704	1860.614380	1265.449585	5.453261
259.746124	1232.682129	1951.263672	1264.557983	4.435941
260.119598	1223.319946	2049.120361	1268.198853	5.434595
260.493042	1216.335571	2127.435547	1263.294800	5.154125
260.866425	1216.409912	2168.004883	1259.802612	4.559997
261.239838	1213.512085	2137.466553	1252.223755	4.189781
261.613159	1219.307617	2063.609375	1256.607544	4.417843
261.986511	1216.558472	1966.793091	1253.932739	4.981677
262.359802	1221.090942	1897.988770	1250.291870	4.313934
262.733063	1222.502808	1845.530884	1243.307495	3.339286
263.106293	1227.926758	1832.973755	1240.112549	2.014024
263.479523	1221.759644	1825.840698	1242.192993	3.382551
263.852692	1218.713135	1821.679688	1250.291870	5.237228
264.225861	1217.598633	1801.618042	1254.081299	6.246824
264.598969	1218.861938	1785.048462	1258.911011	7.073477
264.972076	1213.437866	1787.277710	1253.338379	6.953249
265.345154	1208.013672	1806.224976	1251.703735	7.303450
265.718201	1205.264526	1829.556030	1258.762329	8.569363
266.091217	1214.180786	1856.156250	1255.195801	6.388876
266.464203	1212.768921	1882.310913	1256.236084	6.492074
266.837158	1215.592407	1915.003906	1243.901733	4.047592
267.210114	1210.465576	1957.059204	1246.576782	4.836795
267.583038	1215.815308	1983.734009	1249.846069	4.431558
267.955902	1220.199341	2005.504883	1254.155640	4.323960
268.328766	1221.462402	2002.458374	1256.830444	4.528582
268.701569	1225.549194	2003.052734	1249.474487	3.077194
269.074371	1221.090942	2008.179688	1254.081177	4.191425
269.447144	1218.713257	2017.913452	1250.440430	3.969866
269.819885	1208.385132	2035.151733	1254.452759	5.572023
270.192596	1207.047729	2064.129639	1250.217651	5.036849
270.565277	1209.276855	2104.327393	1251.332153	4.698651
270.937927	1208.682373	2156.041992	1250.440552	4.407849
271.310577	1211.060181	2222.468750	1248.211304	3.673206
271.683136	1207.865112	2295.582764	1247.765503	3.668267
272.055725	1215.889771	2373.823486	1247.765625	2.752822
272.428284	1212.100342	2408.894287	1250.143188	3.178730
272.800812	1210.317017	2415.209717	1249.771851	3.274552
273.173279	1208.533813	2382.219482	1249.326050	3.475567
273.545776	1217.672974	2359.111328	1250.663452	2.890255
273.918152	1230.230103	2326.121094	1253.412598	2.115402
274.290558	1230.973145	2298.777588	1259.728394	2.692932
274.662964	1227.035034	2270.171143	1260.025635	3.162636
275.035278	1219.233276	2258.356934	1266.341309	4.533439
275.407593	1220.942261	2259.694336	1264.112305	4.155952
275.779907	1223.022827	2277.229492	1267.901611	4.257114
276.152161	1229.189819	2301.898193	1261.957397	3.054659
276.524384	1228.298218	2347.891846	1265.598145	3.331559
276.896606	1225.251953	2370.331055	1259.876953	3.023808
277.268799	1221.610962	2393.959473	1259.505371	3.232350
277.640930	1219.753540	2413.724121	1255.418823	2.987116
278.013031	1214.626587	2432.002441	1260.397095	3.759768
278.385162	1212.100342	2443.073486	1262.328857	4.080391
278.757233	1211.357300	2427.544189	1263.963501	4.325503
279.129272	1218.118774	2420.188477	1259.951294	3.480041
279.501282	1214.552368	2425.984131	1258.167969	3.600335
279.873230	1219.159058	2453.475830	1255.418823	2.937639
280.245178	1225.251831	2494.862549	1255.567383	2.387783
280.617126	1227.406616	2543.382080	1255.715942	2.151205
280.988983	1228.446899	2605.276123	1255.641724	1.975178
281.360870	1228.744019	2671.925781	1262.180298	2.316845
281.732697	1226.366333	2734.340088	1265.821167	2.616414
282.104492	1223.319946	2791.033203	1264.335083	2.616240
282.476288	1217.970093	2834.128906	1258.019409	2.478056
282.848053	1217.375854	2879.676025	1259.134033	2.512072
283.219757	1215.592651	2895.948486	1249.474609	2.016356
283.591461	1216.632690	2887.552002	1241.227051	1.471906
283.963135	1220.793823	2860.803467	1238.180542	1.060160
284.334747	1221.610962	2850.623779	1242.787231	1.299945
284.706360	1219.381958	2881.831055	1247.022583	1.662645
285.077942	1216.632813	2936.815186	1236.322998	1.144657
285.449524	1219.307739	3003.539063	1243.530273	1.357589
285.821014	1216.929932	3052.653076	1246.428101	1.606896
286.192535	1214.477905	3111.129639	1253.041138	2.033227
286.563995	1212.768921	3152.813232	1252.372437	2.041372
286.935425	1215.592407	3199.697998	1247.839844	1.625288
287.306824	1217.895996	3203.413086	1252.743896	1.755105
287.678223	1216.261230	3167.004639	1250.588989	1.759727
288.049561	1218.193115	3114.844482	1256.384644	2.013629
288.420898	1226.366333	3056.071045	1254.452881	1.535032
288.792145	1217.598633	3032.294189	1257.796509	2.215131
289.163452	1217.227173	3023.823486	1254.824341	2.081105
289.534668	1212.248901	3065.210205	1252.669678	2.181415
289.905914	1223.468628	3114.992920	1241.895630	0.974188
290.277039	1216.112671	3184.837646	1240.929810	1.260569
290.648193	1214.180786	3263.449951	1245.833740	1.544597
291.019318	1209.276733	3343.399658	1256.533325	2.214333
291.390381	1214.180786	3390.432861	1264.929565	2.331935
291.761475	1216.781372	3375.052490	1263.072021	2.144803
292.132507	1222.056885	3350.680908	1265.672607	2.049010
292.503510	1228.075317	3312.786865	1262.997681	1.675165
292.874481	1230.453125	3284.328857	1273.622925	2.101870
293.245422	1231.344727	3271.325439	1276.372192	2.207250
293.616364	1230.081543	3286.557861	1273.994507	2.135350
293.987213	1230.898926	3346.223389	1264.037964	1.566617
294.358093	1232.607910	3427.287354	1253.189575	0.937798
294.728943	1224.211548	3545.874268	1259.282593	1.510600
295.099731	1217.227173	3649.972656	1262.180298	1.847835
295.470490	1212.100220	3724.498047	1269.982178	2.303853
295.841248	1214.849609	3773.315186	1266.787109	2.030025
296.211975	1211.505859	3829.785156	1261.957520	1.926901
296.582642	1213.809204	3901.487305	1260.174194	1.725095
296.953308	1215.518188	3986.043701	1257.722168	1.523320
297.323883	1222.354126	4061.460938	1256.458984	1.201253
297.694519	1220.645020	4114.958984	1260.322754	1.370886
298.065063	1213.883667	4124.543945	1261.660156	1.641431
298.435608	1212.323120	4075.281250	1271.245239	2.058085
298.806122	1214.998047	3969.474365	1269.313354	1.971892
299.176575	1213.289185	3841.599365	1269.239136	2.128742
299.547028	1208.905273	3736.014893	1258.985352	1.981714
299.917450	1207.716431	3677.167236	1252.669556	1.820369
300.287872	1212.546143	3636.523682	1254.750122	1.741104
300.658234	1217.821655	3614.455811	1258.167969	1.683457
301.028564	1216.038330	3584.140381	1260.545776	1.879456
301.398865	1223.097046	3568.982422	1256.607666	1.428485
301.769135	1226.069214	3551.298828	1251.629517	1.099259
302.139374	1223.765869	3560.809326	1253.115479	1.255844
302.509583	1224.657471	3569.354248	1260.099976	1.511603
302.879791	1224.360229	3567.273438	1265.895386	1.772800
303.249939	1222.948486	3541.267578	1264.632202	1.798015
303.620087	1218.936157	3504.190674	1252.223755	1.456625
303.990173	1215.666870	3493.194092	1251.183472	1.559437
304.360260	1219.381958	3481.305420	1249.771851	1.343542
304.730286	1221.016602	3484.872070	1254.452759	1.476956
305.100281	1228.744141	3474.692627	1253.264038	1.091739
305.470276	1233.053711	3495.125732	1254.601440	0.952566
305.840179	1226.589355	3508.722900	1251.406372	1.087448
306.210144	1225.994995	3534.803467	1249.623169	1.023392
306.579987	1216.484253	3541.936279	1246.353882	1.284465
306.949890	1230.230347	3552.784424	1254.229858	1.033324
307.319702	1226.812256	3584.511719	1255.641724	1.222780
307.689484	1230.304443	3606.208252	1257.424927	1.141481
308.059265	1222.279785	3665.427490	1251.852173	1.210422
308.429016	1215.666748	3720.634521	1255.047241	1.572096
308.798737	1209.202393	3817.079346	1259.208130	1.917488
309.168396	1210.019775	3901.041748	1267.381470	2.131595
309.538055	1216.038208	3955.059570	1268.124512	1.901639
309.907684	1219.233398	3989.981689	1267.381592	1.737733
310.277313	1215.889771	4014.055908	1266.192749	1.797712
310.646851	1210.094116	4046.526123	1265.078125	1.938492
311.016388	1208.831055	4087.466797	1265.895508	1.982344
311.385895	1209.648315	4092.667969	1261.214478	1.788616
311.755371	1217.301392	4094.079834	1269.536255	1.815742
312.124817	1222.502563	4079.888428	1271.170898	1.703247
312.494232	1215.146606	4073.349365	1269.164673	1.889931
312.863617	1209.871216	4051.727295	1263.071899	1.872040
313.232971	1208.831055	4030.031006	1257.722046	1.732986
313.602295	1217.078613	4008.854736	1261.140015	1.578257
313.971619	1222.056763	4009.969482	1258.167969	1.295278
314.340820	1225.029175	3988.124268	1260.174194	1.271944
314.710083	1223.988770	4017.399414	1257.573730	1.202292
315.079285	1222.428467	4055.888428	1258.465210	1.271828
315.448486	1217.301636	4114.661621	1257.053467	1.372002
315.817596	1220.570801	4100.023926	1261.957397	1.437307
316.186707	1223.394287	4050.687256	1259.133911	1.264093
316.555786	1228.149780	3975.567139	1261.214355	1.203478
316.924866	1229.041382	3906.242920	1260.545532	1.176757
317.293884	1222.948608	3867.754150	1262.180298	1.483349
317.662872	1218.787598	3852.447510	1261.883179	1.636338
318.031830	1218.490234	3873.697998	1261.214355	1.609069
318.400757	1220.422241	3895.394531	1259.728394	1.469404
318.769684	1225.623413	3910.923584	1257.424927	1.184281
319.138550	1221.611084	3923.109375	1265.226685	1.614497
319.507416	1217.301392	3927.492920	1271.170898	1.987664
