Jaz Data File
++++++++++++++++++++++++++++++++++++
Date: Fri Jun 04 16:45:18 2021
User: jaz
Dark Spectrum Present: Yes
Reference Spectrum Present: Yes
Processed Spectrum Present: Yes
Spectrometers: JAZA3586
Integration Time (usec): 60600 (JAZA3586)
Spectra Averaged: 10 (JAZA3586)
Boxcar Smoothing: 1 (JAZA3586)
Correct for Electrical Dark: No (JAZA3586)
Strobe/Lamp Enabled: Yes (JAZA3586)
Correct for Detector Non-linearity: No (JAZA3586)
Correct for Stray Light: No (JAZA3586)
Number of Pixels in Processed Spectrum: 2048
>>>>>Begin Processed Spectral Data<<<<<
W	D	R	S	P
191.335022	0.000000	0.000000	0.000000	0.000000
191.713211	232.493210	234.870911	233.013306	21.873898
192.091385	473.456940	475.314545	468.330048	-275.994751
192.469528	711.374268	717.838623	706.916077	-68.965744
192.847641	721.033630	726.829285	716.724121	-74.357597
193.225739	724.451599	734.110840	727.720886	33.846210
193.603790	736.042725	744.959045	742.729980	75.000168
193.981842	747.039551	755.361511	749.045715	24.106874
194.359863	754.246887	760.488464	759.522461	84.523087
194.737854	757.367676	759.893982	755.955994	-55.879299
195.115829	756.401672	756.401672	763.534851	0.000000
195.493774	757.367676	752.983826	755.658691	38.983643
195.871704	756.773254	751.646301	760.116882	-65.216667
196.249603	758.556458	750.754700	756.253113	29.523407
196.627457	758.259277	756.847473	759.076660	-57.896328
197.005310	753.949707	758.556458	755.287109	29.031361
197.383133	750.085999	758.927979	755.510071	61.344543
197.760910	746.222351	754.321228	755.212891	111.009705
198.138687	744.290344	752.092224	758.779358	185.711823
198.516449	742.952942	748.822754	752.835205	168.357407
198.894180	746.742371	747.782532	750.383118	350.017609
199.271866	757.590515	744.067444	745.479187	89.560486
199.649536	756.030212	737.231689	745.553467	55.731750
200.027191	751.794922	740.723877	746.370850	48.993317
200.404816	744.736145	748.005554	748.451355	113.635513
200.782410	741.838379	768.958801	765.318054	86.575623
201.159988	745.404846	780.104309	773.788574	81.798752
201.537537	744.290344	791.249695	771.187927	57.278439
201.915070	754.989929	783.968018	762.420227	25.641090
202.292557	752.240723	779.212646	756.624573	16.253384
202.670029	753.355286	767.472839	762.717468	66.315895
203.047485	744.290283	769.850525	759.745300	60.465065
203.424911	742.729980	773.788574	772.971191	97.368256
203.802292	742.729980	777.800964	774.680115	91.101334
204.179688	738.940613	783.447937	775.348877	81.802856
204.557037	741.318298	781.070251	758.853699	44.112049
204.934357	736.488525	786.642883	755.658691	38.222332
205.311661	740.723816	781.887512	755.138489	35.017925
205.688934	734.853821	779.064148	764.872253	67.899139
206.066177	730.098572	777.503723	758.705078	60.344723
206.443390	726.309082	770.890808	760.934143	77.666489
206.820587	731.807556	764.352112	754.321228	69.177994
207.197769	741.021057	764.797913	758.556458	73.749870
207.574921	734.853943	775.200256	754.098328	47.698002
207.952042	723.931396	775.571777	756.921814	63.884922
208.329147	715.832458	773.862793	759.745300	75.672218
208.706223	748.822815	793.255859	784.265137	79.765686
209.083267	752.389343	799.794495	786.865784	72.727203
209.460297	758.407898	802.766602	784.413818	58.626423
209.837280	725.789001	784.711121	763.460449	63.934307
210.214264	728.909729	778.023743	762.048767	67.473694
210.591217	730.990234	770.296326	762.197327	79.395050
210.968124	737.974609	769.701843	764.277771	82.904053
211.345016	739.906494	774.234314	767.621399	80.735992
211.721893	734.333801	774.308655	780.847351	116.357025
212.098724	731.658875	761.825867	786.271423	181.034119
212.475555	731.213074	764.352112	784.859680	161.883408
212.852356	736.191406	768.215820	774.160095	118.561699
213.229126	740.872375	778.915466	757.367676	43.359516
213.605865	742.358459	775.125977	751.423401	27.664413
213.982590	733.888000	766.581238	750.457520	50.681793
214.359283	740.055176	761.231384	762.048645	103.859337
214.735931	732.476257	761.825745	755.138489	77.215088
215.112579	736.117004	777.355042	753.503906	42.162292
215.489197	729.132629	779.361267	755.212891	51.923092
215.865799	731.436035	777.726563	763.534729	69.341820
216.242355	737.454529	769.553284	763.609070	81.481483
216.618896	737.900330	765.020813	761.974365	88.766983
216.995407	740.055115	762.420227	759.002258	84.717407
217.371902	736.488586	764.426453	751.943542	55.319027
217.748367	732.104736	764.129150	744.290344	38.050995
218.124802	728.909668	767.695618	747.708252	48.467510
218.501236	728.612488	756.698914	749.714539	75.132561
218.877609	733.070618	759.150879	756.104492	88.319183
219.253983	733.442139	757.739197	754.767090	87.767624
219.630295	727.943665	767.770020	757.664856	74.626945
220.006592	731.138733	776.612000	752.760925	47.549240
220.382889	728.835266	775.348938	756.698914	59.904209
220.759140	729.578369	773.045593	759.522400	68.888756
221.135391	728.389587	763.386230	754.098328	73.460587
221.511581	737.454529	770.147705	746.147949	26.590933
221.887772	744.959167	774.011475	748.525635	12.276021
222.263931	743.547363	778.915466	764.500732	59.243690
222.640060	736.414307	778.023865	772.228210	86.071342
223.016159	731.733215	769.627502	766.804138	92.549370
223.392212	731.807434	767.770020	762.123047	84.297646
223.768265	734.556641	767.324219	755.658691	64.399178
224.144302	737.305908	770.221985	754.469910	52.144737
224.520294	737.528809	770.073425	750.829041	40.867687
224.896286	743.027161	768.810303	754.469788	44.380264
225.272217	737.603088	772.599792	759.225159	61.783161
225.648148	733.962219	774.160156	763.237549	72.827942
226.024048	726.011902	778.915466	763.906250	71.629105
226.399902	726.309082	781.887512	765.169434	69.919846
226.775772	725.045959	781.738953	761.900085	65.006493
227.151581	731.956055	776.834961	754.247009	49.669113
227.527374	728.538147	766.655518	754.321228	67.641289
227.903137	737.900391	761.825867	752.983826	63.043407
228.278870	741.912781	762.568848	758.779358	81.654350
228.654572	748.005554	771.187988	754.469910	27.884714
229.030273	743.844543	774.903076	762.791809	61.005024
229.405930	731.064453	774.085754	763.014648	74.265991
229.781555	726.829163	767.844299	762.940369	88.043610
230.157181	719.696106	767.027039	749.788757	63.579250
230.532761	719.250305	764.352051	747.708313	63.097355
230.908325	715.980957	772.079590	741.763977	45.960159
231.283859	726.234802	769.107422	754.618469	66.204651
231.659332	731.436035	769.776184	754.395508	59.883629
232.034821	740.055115	758.110657	761.008484	116.049515
232.410263	727.423645	765.763855	751.349121	62.403091
232.785690	735.151123	767.695740	751.126221	49.086758
233.161087	734.482422	775.571777	752.909424	44.846169
233.536469	742.730042	771.856689	750.160217	25.509890
233.911804	741.021057	777.577942	751.646301	29.064960
234.287140	733.442200	772.896912	752.017883	47.081028
234.662430	735.076843	772.228210	756.178711	56.799706
235.037704	734.036560	764.500732	758.630676	80.731277
235.412933	738.791992	771.485168	760.711243	67.045341
235.788162	732.179016	772.822693	758.482178	64.716492
236.163345	733.293640	773.342773	756.401672	57.699207
236.538513	734.854004	771.410889	746.965332	33.130089
236.913635	732.773438	770.221985	747.039612	38.095402
237.288742	726.160461	775.200378	745.850769	40.151592
237.663834	724.228699	776.537781	748.228333	45.880432
238.038879	732.847717	775.348877	756.550293	55.769245
238.413910	735.671204	776.760559	754.915588	46.835449
238.788910	740.426575	775.125977	763.534729	66.595253
239.163879	737.603027	783.224915	759.373779	47.719971
239.538834	730.247131	780.550049	763.906250	66.912857
239.913757	728.315247	779.435547	764.500671	70.784843
240.288651	731.138733	774.903015	766.358215	80.475403
240.663528	736.562805	773.639954	765.243713	77.354675
241.038361	731.138733	774.085754	758.705078	64.186859
241.413177	721.850891	773.416992	757.962097	70.028961
241.787979	715.906738	774.234375	761.900146	78.853546
242.162735	718.210144	772.302429	770.816406	97.252800
242.537476	720.810730	775.200195	765.689514	82.513741
242.912170	718.210144	773.491272	766.135315	86.693550
243.286865	722.965515	769.999023	769.033203	97.946526
243.661514	728.761047	764.797852	769.627625	113.402336
244.036148	734.631042	769.627625	767.472839	93.842873
244.410751	734.928223	773.565674	758.185059	60.192471
244.785339	725.120300	773.342773	766.506897	85.824295
245.159882	729.949951	773.491394	768.958801	89.590164
245.534378	730.990173	783.522217	769.999084	74.257362
245.908890	736.191406	790.952454	769.553223	60.922531
246.283356	727.200684	784.265198	767.918640	71.354248
246.657791	727.423645	782.184753	757.887695	55.630814
247.032196	734.333801	780.327209	752.166443	38.772167
247.406586	737.305969	782.704834	751.943542	32.242157
247.780960	731.361633	779.138367	762.791748	65.785400
248.155289	726.754883	781.887512	765.020813	69.407051
248.529602	721.330811	786.271423	757.516296	55.720886
248.903870	726.309082	782.779114	757.144714	54.605305
249.278122	724.971619	783.968018	753.132385	47.733025
249.652344	734.482361	783.893738	755.064209	41.654068
250.026550	730.618652	788.351807	753.949707	40.411884
250.400711	739.757874	787.014404	759.150879	41.037727
250.774857	740.426575	783.819336	761.900085	49.486389
251.148987	740.055115	782.556213	763.534851	55.245010
251.523071	732.030334	775.274597	759.150879	62.714779
251.897125	732.327637	788.500488	766.061035	60.052849
252.271164	729.801331	791.918396	761.900085	51.674614
252.645187	728.240967	800.314636	759.522461	43.402111
253.019165	721.405090	795.187744	749.863037	38.569969
253.393112	727.572266	799.348633	755.064270	38.302307
253.767044	731.361633	795.930725	752.315125	32.451271
254.140930	729.578430	793.627380	756.773193	42.459343
254.514801	727.126465	785.899902	753.801086	45.385506
254.888657	720.736389	788.426208	759.968201	57.958218
255.262466	724.674500	781.738953	751.646301	47.265503
255.636276	726.160461	787.608887	752.315125	42.563602
256.010010	731.956055	795.113464	757.962097	41.176552
256.383759	737.157227	798.605652	765.986755	46.916626
256.757446	739.609192	800.166016	765.243713	42.331352
257.131134	737.305908	796.153625	761.157043	40.530266
257.504791	735.596924	797.193848	764.723572	47.285881
257.878418	731.658875	797.268250	764.129150	49.490299
258.252014	727.795166	799.794495	768.438660	56.449821
258.625580	721.107910	799.794495	763.163269	53.446671
258.999115	723.782776	799.868835	764.277771	53.222622
259.372650	730.618652	795.039124	757.218994	41.291752
259.746124	735.522644	808.933777	758.482178	31.275274
260.119598	729.801331	816.215393	761.305664	36.457417
260.493042	733.590759	827.658020	773.788574	42.733055
260.866425	734.705322	827.137878	780.029968	49.035370
261.239838	731.510315	824.314270	777.206482	49.239460
261.613159	721.256531	819.707520	772.302429	51.849045
261.986511	723.114075	814.877930	767.547058	48.421009
262.359802	738.123230	817.181335	777.875183	50.281944
262.733063	738.271912	815.472351	772.971191	44.946999
263.106293	736.042786	811.682861	771.262207	46.561855
263.479523	731.510254	813.243347	757.590515	31.909060
263.852692	740.575195	809.528137	755.955872	22.306047
264.225861	737.454529	814.655090	749.342957	15.399405
264.598969	740.500977	809.008057	749.491516	13.123519
264.972076	731.584656	815.175232	753.281006	25.955498
265.345154	732.550476	817.404297	760.785583	33.274998
265.718201	727.274963	818.815918	764.872253	41.071552
266.091217	737.528809	825.949036	764.575012	30.588253
266.464203	741.095276	830.110046	762.048767	23.539343
266.837158	733.590759	832.339050	766.804016	33.634258
267.210114	723.559875	829.292664	762.940369	37.245300
267.583038	722.519714	821.342285	767.249939	45.263165
267.955902	730.470032	824.834473	758.630798	29.842562
268.328766	731.138855	823.274109	759.968262	31.290310
268.701569	734.928223	830.630127	751.794922	17.624205
269.074371	737.008728	832.041931	758.482178	22.595734
269.447144	741.318176	837.837463	757.219055	16.474302
269.819885	739.832214	847.794006	761.231445	19.821115
270.192596	734.631042	849.577332	760.265442	22.301197
270.565277	739.832214	855.595764	763.906250	20.795868
270.937927	737.900208	853.961182	768.587341	26.440527
271.310577	737.974609	863.992004	770.444824	25.766455
271.683136	735.968445	863.620422	766.655457	24.039589
272.055725	724.525818	877.589355	769.181702	29.174736
272.428284	729.652771	889.626465	764.129150	21.551281
272.800812	739.312073	895.199219	766.209656	17.254522
273.173279	753.652527	893.341614	757.070496	2.446840
273.545776	751.572021	885.316895	757.813477	4.666687
273.918152	736.785828	887.991882	766.952637	19.950794
274.290558	731.956116	880.190002	779.584167	32.130341
274.662964	730.395752	876.549133	782.704834	35.790539
275.035278	731.510315	877.812317	778.543945	32.148315
275.407593	729.950012	879.521301	771.262207	27.620405
275.779907	737.231628	885.688477	765.392334	18.968950
276.152161	738.049011	883.830872	759.373840	14.627903
276.524384	742.507141	889.552185	759.002258	11.217731
276.896606	730.618652	889.329285	759.448181	18.164837
277.268799	725.194519	889.849365	758.333557	20.126368
277.640930	718.061462	901.514954	759.002258	22.316717
278.013031	720.216309	912.883301	765.392334	23.447725
278.385162	723.931396	920.759338	765.986755	21.366560
278.757233	727.795166	916.375488	765.986816	20.252193
279.129272	725.268860	912.511719	769.776184	23.769838
279.501282	725.640442	916.895508	769.627625	22.999226
279.873230	722.296692	920.907898	765.020813	21.511435
280.245178	722.371094	927.149353	764.054871	20.355568
280.617126	726.903503	938.443359	761.751526	16.473501
280.988983	737.603088	945.279236	769.330383	15.277293
281.360870	748.154053	958.430847	766.135315	8.551234
281.732697	747.039551	971.359436	770.444885	10.433909
282.104492	746.816650	984.288147	765.392273	7.822254
282.476288	742.432800	986.145691	761.751465	7.926813
282.848053	738.271912	991.792786	761.231384	9.056246
283.219757	736.637207	999.371582	755.881592	7.324654
283.591461	735.448425	1004.424133	756.327393	7.762399
283.963135	734.036621	1000.634705	755.584473	8.082523
284.334747	730.618652	1007.024719	767.027039	13.172065
284.706360	733.962341	1021.811035	766.952698	11.461006
285.077942	738.197510	1034.368164	769.850403	10.687384
285.449524	736.785828	1040.015259	772.302490	11.712802
285.821014	736.785828	1047.073853	775.794739	12.571839
286.192535	740.278015	1058.888062	778.395325	11.963625
286.563995	743.770264	1065.055176	768.290222	7.631843
286.935425	736.265686	1069.439087	767.249939	9.299738
287.306824	735.076843	1064.312134	768.884583	10.268565
287.678223	730.172852	1065.575317	774.903137	13.336302
288.049561	726.977844	1063.717773	774.457275	14.099733
288.420898	721.776672	1065.278198	762.048767	11.723993
288.792145	728.686829	1067.804321	765.912415	10.977194
289.163452	738.569031	1068.621704	765.689514	8.217017
289.534668	729.504150	1076.275024	773.045471	12.556222
289.905914	723.857117	1090.243774	769.107422	12.350424
290.277039	716.426941	1115.952515	768.884583	13.129983
290.648193	727.349365	1135.196899	770.147705	10.493711
291.019318	735.225403	1150.874756	766.729736	7.579546
291.390381	731.584534	1153.401001	767.249817	8.455166
291.761475	727.497864	1157.487671	765.466553	8.830137
292.132507	721.405090	1147.754028	768.141541	10.962019
292.503510	730.098572	1143.890503	769.330383	9.481048
292.874481	738.569031	1145.450806	777.355042	9.532501
293.245422	736.488586	1145.079224	781.961914	11.129313
293.616364	735.448303	1150.429077	782.333313	11.298116
293.987213	725.045898	1164.175049	776.760681	11.776669
294.358093	726.234802	1189.289429	769.181824	9.274720
294.728943	727.423645	1212.992065	764.054932	7.544001
295.099731	728.538147	1231.121826	755.955872	5.455355
295.470490	731.435974	1243.307495	748.748535	3.382208
295.841248	724.748779	1259.356812	752.909424	5.267531
296.211975	725.863281	1269.907837	762.643066	6.760436
296.582642	719.398926	1292.941650	765.912415	8.109856
296.953308	719.993347	1321.845337	767.918640	7.962970
297.323883	725.714661	1338.489380	763.906311	6.232576
297.694519	725.714661	1352.904053	767.398499	6.646132
298.065063	733.665039	1352.458130	772.971252	6.352077
298.435608	726.977844	1351.863647	772.005310	7.205711
298.806122	733.590759	1329.572876	773.342773	6.670001
299.176575	731.658875	1305.721802	763.906250	5.617394
299.547028	732.773376	1285.734253	761.454285	5.186788
299.917450	734.036621	1284.173950	759.373840	4.605617
300.287872	734.333801	1278.675537	761.751465	5.036848
300.658234	739.386414	1277.783813	765.243713	4.802642
301.028564	727.349304	1273.845825	767.770020	7.396335
301.398865	722.296814	1280.235840	768.810303	8.336661
301.769135	720.290588	1286.477295	768.661621	8.543301
302.139374	731.064453	1286.180054	764.649353	6.050073
302.509583	732.030457	1279.344238	761.082764	5.308163
302.879791	735.002502	1280.533081	767.992920	6.047400
303.249939	728.686829	1287.369019	772.302490	7.806882
303.620087	734.556702	1289.078003	767.175598	5.882352
303.990173	728.612488	1289.375122	757.590576	5.167621
304.360260	732.922058	1287.814819	759.002258	4.700043
304.730286	725.343079	1291.009766	765.020813	7.014331
305.100281	724.822998	1305.201538	769.330383	7.668682
305.470276	723.931335	1309.511108	767.026917	7.359472
305.840179	730.024231	1325.932007	764.872253	5.847888
306.210144	730.990234	1327.417969	759.448059	4.771379
306.579987	729.875671	1335.294067	759.225159	4.847802
306.949890	730.470032	1344.804810	758.482178	4.559752
307.319702	739.534973	1354.315796	762.940369	3.807112
307.689484	733.888000	1367.615845	769.033203	5.545788
308.059265	740.723816	1384.631226	774.085754	5.181170
308.429016	738.866211	1411.157227	771.782410	4.896123
308.798737	744.141785	1441.101196	771.856689	3.976545
309.168396	736.339905	1464.878296	770.667786	4.711884
309.538055	732.030457	1477.732544	772.451111	5.420483
309.907684	731.510315	1496.605469	768.884583	4.884918
310.277313	733.144958	1502.326660	767.249939	4.433930
310.646851	737.603088	1507.007813	767.324219	3.862873
311.016388	739.609314	1514.586548	772.674011	4.266538
311.385895	738.197510	1523.057129	773.714294	4.525240
311.755371	734.408142	1534.574097	777.206360	5.348668
312.124817	736.339905	1533.608032	767.026917	3.849020
312.494232	733.887939	1535.540039	767.472839	4.189461
312.863617	730.172852	1531.750610	765.540955	4.412311
313.232971	720.662109	1521.199585	776.834961	7.016892
313.602295	720.067688	1518.524780	770.965027	6.374461
313.971619	720.067688	1534.722656	768.141602	5.901138
314.340820	721.702332	1544.902222	763.757629	5.108759
314.710083	719.770508	1562.660522	776.314758	6.708378
315.079285	718.804504	1563.849487	783.968018	7.711248
315.448486	724.748779	1585.694336	786.048523	7.120049
315.817596	727.052063	1582.053589	785.454102	6.830636
316.186707	731.287415	1573.731812	779.658447	5.741748
316.555786	731.807556	1546.908203	770.444885	4.740191
316.924866	732.847717	1531.230469	764.426453	3.955338
317.293884	735.819824	1529.521484	762.568848	3.370161
317.662872	734.259460	1542.078735	770.444885	4.479396
318.031830	736.934387	1548.468750	766.655457	3.662330
318.400757	735.522644	1553.892700	768.364441	4.013074
318.769684	734.482422	1564.443726	767.175598	3.939121
319.138550	724.525818	1577.075195	765.615234	4.819594
319.507416	716.278259	1599.366089	765.689636	5.595296
319.876190	720.662109	1605.013062	760.785645	4.537060
320.244995	734.408142	1605.235962	770.593567	4.155291
320.613770	737.380188	1582.870972	767.398499	3.550401
320.982483	738.197510	1565.484009	771.559509	4.032702
321.351166	732.921936	1557.087891	757.590576	2.993164
321.719818	738.420410	1548.320190	759.893982	2.651386
322.088440	736.339905	1559.465454	757.441895	2.563642
322.457062	735.225403	1573.731567	771.336609	4.306612
322.825623	736.339905	1601.817993	768.810303	3.751730
323.194183	733.367859	1620.913940	768.290100	3.934696
323.562653	734.259521	1658.065308	763.534729	3.168979
323.931183	726.532043	1690.758423	761.305664	3.606375
324.299591	725.120300	1739.055176	758.407898	3.283011
324.668060	721.776611	1760.974609	753.726807	3.074505
325.036407	717.541321	1786.980469	760.265442	3.995002
