Jaz Data File
++++++++++++++++++++++++++++++++++++
Date: Fri Jun 04 16:50:05 2021
User: jaz
Dark Spectrum Present: Yes
Reference Spectrum Present: Yes
Processed Spectrum Present: Yes
Spectrometers: JAZA3586
Integration Time (usec): 24900 (JAZA3586)
Spectra Averaged: 10 (JAZA3586)
Boxcar Smoothing: 1 (JAZA3586)
Correct for Electrical Dark: No (JAZA3586)
Strobe/Lamp Enabled: Yes (JAZA3586)
Correct for Detector Non-linearity: No (JAZA3586)
Correct for Stray Light: No (JAZA3586)
Number of Pixels in Processed Spectrum: 2048
>>>>>Begin Processed Spectral Data<<<<<
W	D	R	S	P
191.335022	0.000000	0.000000	0.000000	0.000000
191.713211	231.155762	234.127869	231.675903	17.500771
192.091385	464.763519	467.438385	464.466309	-11.111238
192.469528	701.492004	705.652893	698.371277	-75.001465
192.847641	713.603333	712.860291	705.355774	1109.972046
193.225739	723.857117	731.064453	713.751953	-140.206635
193.603790	734.482422	738.271790	720.736389	-362.752686
193.981842	733.739441	737.900330	723.336975	-250.005875
194.359863	736.117004	734.185120	728.315247	403.841766
194.737854	737.974609	738.123230	730.841614	-4799.466309
195.115829	740.500916	744.736145	733.442200	-166.666672
195.493774	744.141785	746.147949	736.860107	-362.965118
195.871704	743.472961	746.593750	748.154114	149.999023
196.249603	746.445068	755.361511	757.739075	126.664932
196.627457	747.188171	758.556458	754.915710	67.974533
197.005310	747.188171	764.203430	744.661865	-14.847298
197.383133	750.606140	760.339783	738.346191	-125.954376
197.760910	754.246887	757.293274	736.860046	-570.736511
198.138687	752.909485	756.327393	739.534973	-391.306976
198.516449	751.943542	754.989990	741.169617	-353.655365
198.894180	745.330566	752.612305	738.791931	-89.794975
199.271866	748.154053	751.572083	733.665039	-423.899567
199.649536	744.736145	746.816650	733.070618	-560.706421
200.027191	745.553467	751.051941	741.912598	-66.215988
200.404816	740.500916	744.364685	748.228333	199.996841
200.782410	742.432800	759.448059	747.485352	29.694237
201.159988	746.370850	763.311829	746.593750	1.315747
201.537537	747.931152	776.314880	741.095398	-24.083357
201.915070	745.999268	771.559509	736.488586	-37.208885
202.292557	737.008606	778.320984	738.791992	4.316833
202.670029	728.835388	777.726563	740.203674	23.252226
203.047485	720.885010	782.333313	747.559631	43.409859
203.424911	718.358704	770.667786	743.695984	48.437630
203.802292	723.188416	771.633789	738.494812	31.595167
204.179688	728.538147	771.930969	733.739319	11.986249
204.557037	728.835388	782.556335	731.881836	5.670875
204.934357	735.374023	782.704895	735.819824	0.941882
205.311661	737.603088	775.571777	725.120300	-32.876534
205.688934	741.912659	776.091980	725.194580	-48.912846
206.066177	736.191406	769.999084	725.268860	-32.307888
206.443390	740.278015	775.051758	734.185120	-17.521542
206.820587	744.216064	767.101318	736.117004	-35.389862
207.197769	743.101501	768.810242	738.271790	-18.786264
207.574921	737.751709	772.302429	740.723816	8.602157
207.952042	727.052185	774.159973	732.773438	12.145024
208.329147	726.309082	773.045471	729.875671	7.631290
208.706223	732.179016	770.073425	727.795105	-11.568754
209.083267	734.036621	768.364441	735.745544	4.978246
209.460297	734.333801	767.992920	728.835388	-16.335583
209.837280	723.485596	767.398499	721.479431	-4.568508
210.214264	726.457703	769.479004	714.420654	-27.979275
210.591217	725.640381	767.101318	722.593933	-7.347754
210.968124	722.668274	765.912415	734.631042	27.663328
211.345016	723.188416	764.054871	742.432800	47.090908
211.721893	720.662109	770.370605	742.878601	44.693550
212.098724	717.095520	765.986755	737.083008	40.881535
212.475555	702.383606	762.048767	728.761047	44.209118
212.852356	708.773682	761.974426	724.674377	29.888107
213.229126	711.448547	765.838135	725.268860	25.409849
213.605865	725.417480	768.661621	719.919128	-12.714675
213.982590	719.027527	761.602844	723.708496	10.994561
214.359283	722.445313	756.104492	724.154297	5.077320
214.735931	720.141907	760.785583	733.144958	31.992804
215.112579	718.284363	756.104492	735.671204	45.972450
215.489197	719.324646	761.825867	732.253357	30.419622
215.865799	714.049133	760.934143	721.628113	16.165037
216.242355	717.541321	764.203430	718.284424	1.592519
216.618896	722.816895	761.751465	722.668274	-0.381719
216.995407	731.733215	762.866028	729.949951	-5.727925
217.371902	732.104675	764.277832	726.531982	-17.320938
217.748367	733.219238	768.736023	720.216309	-36.610661
218.124802	732.104675	763.683350	723.857117	-26.117495
218.501236	736.934387	768.067200	729.281250	-24.582222
218.877609	731.510315	760.265442	736.562927	17.571171
219.253983	727.572266	757.516174	734.036621	21.588215
219.630295	726.309082	750.829041	735.225403	36.363522
220.006592	721.479431	749.342957	728.686829	25.866783
220.382889	720.142029	754.395508	726.383484	18.221376
220.759140	717.095520	761.751465	726.754944	21.630768
221.135391	717.764343	770.816406	729.949951	22.969151
221.511581	717.689941	775.497498	732.550598	25.707119
221.887772	714.420654	770.890808	724.525879	17.894806
222.263931	711.522888	761.454285	729.652771	36.309586
222.640060	704.984192	756.253113	730.247253	49.275585
223.016159	706.470276	760.785583	735.225403	52.941109
223.392212	709.145203	769.627625	727.869446	30.958157
223.768265	723.188416	774.457275	722.668274	-1.014537
224.144302	723.485596	775.200378	718.433044	-9.770033
224.520294	731.881836	767.918640	719.250305	-35.051750
224.896286	728.389648	763.757751	722.891174	-15.546421
225.272217	728.315247	766.135315	726.011902	-6.090271
225.648148	724.525818	769.701843	721.850891	-5.921120
226.024048	722.593933	772.599609	724.748718	4.309081
226.399902	718.953125	775.943359	725.343201	11.212580
226.775772	723.857178	779.064026	726.086182	4.037549
227.151581	729.206970	777.726563	718.581604	-21.899124
227.527374	734.036621	776.983582	715.015137	-44.290642
227.903137	730.395752	775.794739	713.900574	-36.333801
228.278870	730.990234	779.807129	723.411316	-15.525196
228.654572	736.042786	772.302490	727.052063	-24.795355
229.030273	733.590759	765.912415	727.572266	-18.620623
229.405930	723.782776	759.893982	725.194580	3.909601
229.781555	724.674500	762.048767	724.525879	-0.397655
230.157181	724.302917	765.838135	729.504089	12.522318
230.532761	731.658875	771.262207	723.857117	-19.699751
230.908325	720.885010	776.983582	721.479431	1.059602
231.283859	720.736389	776.091980	723.634277	5.235042
231.659332	713.603333	773.862793	731.584656	29.839834
232.034821	725.120300	770.816406	730.395752	11.544641
232.410263	722.668274	767.770020	731.733215	20.098871
232.785690	729.875671	768.438721	724.897400	-12.909434
233.161087	724.228577	761.157043	730.618713	17.304094
233.536469	720.736328	767.472839	728.984070	17.647320
233.911804	716.501160	763.163269	731.138733	31.369291
234.287140	719.621826	766.878418	725.640320	12.735776
234.662430	724.377258	766.655457	723.262695	-2.636259
235.037704	723.485596	770.890625	720.587830	-6.112782
235.412933	719.324646	778.023743	727.275085	13.544398
235.788162	718.210144	773.268372	727.943787	17.678816
236.163345	720.142029	767.027039	735.819824	33.438824
236.538513	718.953125	764.054932	733.070618	31.301390
236.913635	721.256531	774.903076	734.036560	23.822651
237.288742	723.931458	778.172363	723.931396	-0.000113
237.663834	724.748779	776.017578	720.290527	-8.695839
238.038879	730.024231	771.410889	721.033630	-21.723427
238.413910	727.646545	774.754456	725.566101	-4.416337
238.788910	733.145020	777.800842	730.395752	-6.156571
239.163879	730.692932	778.692444	728.463867	-4.643932
239.538834	735.002502	776.166199	732.550476	-5.956769
239.913757	728.092346	775.200256	730.544373	5.205127
240.288651	729.578430	777.057861	728.835388	-1.564977
240.663528	723.337097	777.726563	720.513489	-5.191462
241.038361	729.578430	778.915466	718.878845	-21.686720
241.413177	728.984070	784.190918	715.015076	-25.303009
241.787979	732.327637	787.608887	727.349304	-9.005463
242.162735	732.699219	789.243469	733.962341	2.233865
242.537476	731.881775	785.156921	745.033386	24.686205
242.912170	731.807556	787.237305	738.123230	11.394015
243.286865	727.869446	788.054688	730.395752	4.197551
243.661514	726.532043	789.689270	726.680664	0.235318
244.036148	730.024231	789.317810	729.949951	-0.125275
244.410751	730.767273	788.128906	730.024231	-1.295364
244.785339	733.516418	786.419983	725.566101	-15.027943
245.159882	724.823059	798.977234	725.491760	0.901771
245.534378	722.222412	799.348694	723.634094	1.830352
245.908890	715.758057	795.782166	722.371033	8.263730
246.283356	716.724060	782.407654	717.392761	1.018064
246.657791	721.553711	782.779114	725.268860	6.067986
247.032196	730.024231	790.357971	725.640381	-7.266001
247.406586	734.928223	803.509583	730.470032	-6.500587
247.780960	726.383362	808.710754	728.909668	3.068609
248.155289	717.987122	818.444519	737.825989	19.748537
248.529602	717.689941	815.620911	732.699158	15.326323
248.903870	725.268860	823.794250	727.126465	1.885407
249.278122	727.869446	818.370178	720.587830	-8.045919
249.652344	716.501160	814.655029	720.364929	3.936441
250.026550	713.008972	800.983337	732.030457	21.621622
250.400711	707.659180	798.679932	737.008606	32.244762
250.774857	721.033630	795.187744	738.791931	23.947830
251.148987	722.445374	795.633484	730.172852	10.558379
251.523071	726.383362	799.274414	724.748718	-2.242585
251.897125	723.262695	804.475586	728.909668	6.953296
252.271164	727.200745	806.704651	731.064453	4.859772
252.645187	728.909668	806.778992	733.962219	6.488500
253.019165	729.578430	810.122620	728.315247	-1.568311
253.393112	724.600098	812.277344	726.234680	1.864318
253.767044	723.336975	809.899719	728.389587	5.836936
254.140930	725.045959	806.704590	737.974609	15.832558
254.514801	726.309082	810.122559	744.364685	21.542601
254.888657	735.374023	814.060608	743.027283	9.726256
255.262466	731.361633	814.952209	737.528809	7.377836
255.636276	734.408142	813.911926	727.349365	-8.878542
256.010010	727.943787	813.837708	729.949951	2.335630
256.383759	733.144958	821.565186	726.754883	-7.226939
256.757446	724.600159	823.645691	732.550537	8.026994
257.131134	723.114075	827.360840	727.943787	4.632961
257.504791	724.005676	835.162598	723.782776	-0.200528
257.878418	723.857117	840.140808	725.640381	1.533546
258.252014	718.804504	848.388428	724.897400	4.701891
258.625580	711.448547	856.561768	733.665100	15.309806
258.999115	716.724060	875.731750	734.482422	11.168241
259.372650	717.318542	890.666748	739.832214	12.987542
259.746124	723.708496	902.480896	737.751709	7.855359
260.119598	733.516418	926.257751	730.321472	-1.657634
260.493042	737.900208	938.666321	726.234802	-5.810445
260.866425	730.172852	952.783752	720.885010	-4.172231
261.239838	711.448547	941.266907	724.377258	5.625621
261.613159	713.528992	925.886230	722.593994	4.268751
261.986511	715.386536	899.285828	719.770508	2.383898
262.359802	725.491699	881.824707	718.210144	-4.657721
262.733063	731.584534	879.446960	720.513489	-7.487396
263.106293	734.408142	883.087830	725.937500	-5.697242
263.479523	732.104736	890.740967	726.383362	-3.606600
263.852692	721.702332	889.997986	725.566101	2.295823
264.225861	724.005676	890.815247	724.971680	0.579105
264.598969	728.612488	893.044434	725.268860	-2.033442
264.972076	734.482422	900.325989	728.612488	-3.539440
265.345154	734.333801	894.604736	729.949951	-2.735275
265.718201	729.281189	896.016541	729.801270	0.311920
266.091217	732.699158	898.691406	729.281189	-2.059114
266.464203	733.144958	918.976074	735.671204	1.359431
266.837158	735.671204	926.109131	734.482422	-0.624236
267.210114	726.011780	929.155579	732.996338	3.438233
267.583038	720.959290	928.263977	727.126404	2.974903
267.955902	718.953125	932.350586	730.544373	5.431765
268.328766	715.015137	941.787048	730.470032	6.815172
268.701569	712.414551	941.341125	721.479492	3.959759
269.074371	713.751953	946.839600	721.702332	3.410897
269.447144	720.884949	951.594971	719.547607	-0.579663
269.819885	722.445313	966.529785	727.869446	2.222236
270.192596	725.863281	979.384094	732.550598	2.637778
270.565277	721.627991	996.622375	738.123230	5.998391
270.937927	723.039795	1007.544861	743.770203	7.286481
271.310577	710.854065	1030.801636	742.507080	9.893188
271.683136	714.494934	1047.891235	748.302734	10.140425
272.055725	711.299988	1081.550415	745.330566	9.191233
272.428284	717.392761	1092.695801	743.250183	6.889745
272.800812	719.250305	1101.389160	732.847717	3.558239
273.173279	723.931396	1073.228516	732.624817	2.488832
273.545776	728.389587	1071.445190	736.265625	2.295849
273.918152	724.302917	1064.906616	736.562805	3.599458
274.290558	725.268860	1075.606079	732.030334	1.929990
274.662964	724.302917	1056.213135	723.336914	-0.291044
275.035278	729.801270	1054.578491	726.977783	-0.869361
275.407593	725.714661	1056.064575	733.516418	2.361665
275.779907	725.863281	1070.850708	738.123230	3.553738
276.152161	723.411316	1079.395630	731.361633	2.233334
276.524384	726.977844	1103.098145	724.674500	-0.612396
276.896606	722.891113	1111.717285	720.290588	-0.668814
277.268799	719.919128	1122.639771	728.092346	2.029500
277.640930	721.776672	1119.370483	734.333801	3.158281
278.013031	724.971680	1133.488037	744.216064	4.710799
278.385162	726.309082	1127.246582	740.278015	3.484067
278.757233	725.789001	1133.710938	725.640381	-0.036434
279.129272	726.829163	1127.618042	717.244141	-2.391539
279.501282	723.559875	1138.020386	721.925293	-0.394388
279.873230	729.058289	1142.850098	732.847717	0.915781
280.245178	722.668274	1156.670532	734.705322	2.773499
280.617126	728.166687	1174.205933	728.909668	0.166573
280.988983	714.420593	1199.617432	728.612488	2.924977
281.360870	717.615662	1234.762695	736.562927	3.663806
281.732697	718.953125	1270.947876	734.333801	2.786381
282.104492	728.538269	1296.731079	740.426575	2.092301
282.476288	728.389465	1313.449097	737.157410	1.498641
282.848053	724.748718	1322.662598	741.095398	2.733952
283.219757	717.318420	1323.480103	735.745605	3.039979
283.591461	719.324707	1321.250977	737.380188	2.999617
283.963135	723.262695	1319.318970	739.609314	2.742462
284.334747	723.114075	1329.349976	742.209900	3.149900
284.706360	723.188293	1350.154663	735.745605	2.002868
285.077942	724.971619	1370.588013	728.835449	0.598472
285.449524	731.881836	1402.315063	726.903503	-0.742555
285.821014	732.030457	1420.519409	728.166687	-0.561196
286.192535	727.646545	1451.355103	735.448242	1.078016
286.563995	726.383484	1465.472656	733.516418	0.965098
286.935425	722.965515	1486.871704	742.432800	2.548387
287.306824	719.770508	1484.791382	734.482422	1.923074
287.678223	726.680664	1477.806763	737.974609	1.503602
288.049561	733.739441	1457.076294	728.092468	-0.780684
288.420898	730.024231	1444.667847	735.522644	0.769392
288.792145	724.748718	1441.770020	739.980774	2.124352
289.163452	721.107910	1448.457153	737.380188	2.237203
289.534668	726.011902	1472.605591	735.002625	1.204232
289.905914	726.680603	1497.348267	725.566101	-0.144615
290.277039	725.045898	1535.094238	730.767273	0.706300
290.648193	731.584656	1572.914429	731.361755	-0.026494
291.019318	732.699158	1598.028687	730.618652	-0.240429
291.390381	730.544373	1617.570313	723.931458	-0.745515
291.761475	727.126465	1609.471313	730.247131	0.353679
292.132507	714.123474	1606.127808	733.145020	2.132450
292.503510	712.265930	1582.573730	732.996399	2.381970
292.874481	714.346375	1570.239380	723.039856	1.015721
293.245422	715.386536	1574.326050	724.971680	1.115928
293.616364	723.485596	1596.022461	735.151123	1.336967
293.987213	713.380432	1635.254395	743.844543	3.304585
294.358093	716.724060	1671.291138	745.033386	2.965672
294.728943	715.163635	1716.913086	735.671204	2.047175
295.099731	720.216309	1765.358398	728.389587	0.782026
295.470490	720.736328	1793.147827	723.411316	0.249437
295.841248	720.885010	1824.354858	723.634216	0.249142
296.211975	731.287354	1840.106934	731.435974	0.013403
296.582642	735.076843	1885.803101	734.928223	-0.012915
296.953308	736.860107	1931.127808	741.318176	0.373289
297.323883	734.853943	1979.498657	737.974609	0.250727
297.694519	733.070618	2011.597656	746.965149	1.086761
298.065063	733.070618	2009.739868	740.872375	0.611103
298.435608	727.497986	1988.563843	735.374023	0.624554
298.806122	726.977844	1931.573608	722.668213	-0.357766
299.176575	730.692871	1875.029175	727.572266	-0.272700
299.547028	733.962219	1836.837524	732.624817	-0.121265
299.917450	734.928223	1825.692261	740.649597	0.524529
300.287872	726.160461	1823.165894	745.627747	1.774584
300.658234	728.240967	1817.295898	744.216064	1.466877
301.028564	732.847717	1812.317749	738.048889	0.481826
301.398865	737.825989	1815.586914	726.011902	-1.096169
301.769135	729.504089	1809.791382	725.417480	-0.378289
302.139374	722.148132	1811.500366	731.658936	0.873070
302.509583	712.488770	1810.088501	736.711487	2.206881
302.879791	711.076965	1809.940063	739.312073	2.569484
303.249939	707.733398	1799.983398	732.922058	2.306126
303.620087	717.838562	1789.209595	730.395752	1.172067
303.990173	721.330811	1775.760742	732.179016	1.028822
304.360260	720.290527	1785.123047	737.825989	1.646781
304.730286	722.668274	1782.819702	738.346191	1.478838
305.100281	722.519592	1798.125977	732.104736	0.891139
305.470276	735.968445	1800.875000	732.773438	-0.300027
305.840179	731.361633	1820.119507	736.191345	0.443598
306.210144	726.829285	1836.540405	737.825989	0.990952
306.579987	720.290588	1852.663940	738.940613	1.646986
306.949890	712.934631	1870.868164	737.083008	2.085472
307.319702	725.491760	1886.323120	734.333801	0.761699
307.689484	729.652771	1911.660278	730.321472	0.056573
308.059265	737.825989	1935.288696	727.497864	-0.862501
308.429016	727.349365	1967.907593	732.550476	0.419256
308.798737	723.411316	2000.526489	735.745544	0.965788
309.168396	723.634277	2049.046143	740.203674	1.250132
309.538055	726.011902	2088.575195	739.386414	0.981570
309.907684	725.863281	2122.308594	734.556641	0.622535
310.277313	723.039795	2149.428955	727.720886	0.328178
310.646851	727.275085	2172.017334	724.377258	-0.200577
311.016388	728.686829	2186.134766	726.977844	-0.117259
311.385895	724.525879	2176.549561	730.470032	0.409370
311.755371	727.646484	2178.778809	732.699158	0.348188
312.124817	731.584534	2176.772461	727.275085	-0.298193
312.494232	733.144958	2178.852783	732.179016	-0.066814
312.863617	733.813660	2163.398193	732.104736	-0.119540
313.232971	732.104675	2149.800781	738.791931	0.471699
313.602295	741.095398	2141.627441	736.414246	-0.334241
313.971619	738.271790	2153.441406	729.355469	-0.630053
314.340820	737.677429	2161.763428	723.634216	-0.986121
314.710083	722.742615	2190.369873	729.578430	0.465773
315.079285	716.649719	2216.450195	735.299744	1.243500
315.448486	716.278259	2255.013428	735.374084	1.241008
315.817596	725.268860	2255.756348	736.860107	0.757357
316.186707	730.544373	2227.892822	740.649597	0.674875
316.555786	729.652649	2188.066650	748.599915	1.299169
316.924866	726.309082	2146.605469	742.729980	1.156160
317.293884	714.717834	2128.772949	744.959167	2.138625
317.662872	712.488770	2122.754395	740.426575	1.981031
318.031830	715.609558	2140.735596	738.791992	1.626694
318.400757	726.309082	2149.280518	739.534973	0.929456
318.769684	727.720764	2160.277344	736.117004	0.586102
319.138550	721.999512	2182.791016	733.516418	0.788402
319.507416	717.764343	2212.511963	729.429871	0.780435
319.876190	715.163635	2229.675781	728.538147	0.883090
320.244995	722.891113	2222.022949	725.937561	0.203214
320.613770	725.640320	2197.800293	724.971680	-0.045419
320.982483	736.042786	2178.630127	724.154297	-0.824109
321.351166	735.745544	2161.391846	723.262695	-0.875592
321.719818	732.847717	2159.682861	721.850891	-0.770715
322.088440	725.491760	2157.082275	730.990173	0.384077
322.457062	721.479492	2179.893066	736.785828	1.049520
322.825623	721.256531	2214.740967	744.884766	1.582088
323.194183	714.569336	2254.790283	738.048889	1.524428
323.562653	712.340271	2298.183105	742.729980	1.916313
323.931183	710.705566	2351.978271	739.163391	1.733888
324.299591	715.981018	2422.343018	738.569031	1.323753
324.668060	720.662109	2479.556396	740.352295	1.119464
325.036407	725.268799	2521.908936	732.030457	0.376350
