Jaz Data File
++++++++++++++++++++++++++++++++++++
Date: Fri Jun 04 16:39:07 2021
User: jaz
Dark Spectrum Present: Yes
Reference Spectrum Present: Yes
Processed Spectrum Present: Yes
Spectrometers: JAZA3586
Integration Time (usec): 24500 (JAZA3586)
Spectra Averaged: 10 (JAZA3586)
Boxcar Smoothing: 1 (JAZA3586)
Correct for Electrical Dark: No (JAZA3586)
Strobe/Lamp Enabled: Yes (JAZA3586)
Correct for Detector Non-linearity: No (JAZA3586)
Correct for Stray Light: No (JAZA3586)
Number of Pixels in Processed Spectrum: 2048
>>>>>Begin Processed Spectral Data<<<<<
W	D	R	S	P
191.335022	0.000000	0.000000	0.000000	0.000000
191.713211	234.722305	237.694412	239.774857	169.998978
192.091385	468.330078	472.342407	474.645752	157.406677
192.469528	711.002747	710.185364	713.677551	-327.240143
192.847641	720.513489	715.535156	714.866455	113.432236
193.225739	732.476257	730.321472	727.497864	231.038971
193.603790	736.860046	741.615417	745.033386	171.875961
193.981842	742.209778	745.999268	750.531738	219.606354
194.359863	749.714417	747.931152	751.794922	-116.668381
194.737854	753.281006	751.571960	742.581360	626.059753
195.115829	747.039551	756.253113	746.073669	-10.483256
195.493774	744.364685	757.144714	742.358459	-15.698130
195.871704	749.268555	759.448059	744.884766	-43.064857
196.249603	759.002258	755.435791	749.342957	270.836670
196.627457	760.636963	752.909485	757.441895	41.346844
197.005310	755.881531	750.606140	762.048767	-116.905777
197.383133	752.166443	758.853760	754.692688	37.776661
197.760910	752.389343	761.008484	754.989929	30.172218
198.138687	755.287109	762.420227	752.389343	-40.624119
198.516449	752.240723	760.859863	753.058105	9.483345
198.894180	751.274841	756.847473	752.686523	25.332413
199.271866	746.296570	753.726746	754.915710	116.001839
199.649536	747.931152	745.553467	753.058105	-215.627884
200.027191	745.330566	743.918762	746.147949	-57.896328
200.404816	742.061218	748.822815	746.965271	72.528030
200.782410	740.872375	757.516296	757.590515	100.445923
201.159988	741.615479	771.856628	765.615234	79.361252
201.537537	743.101563	774.977356	761.825867	58.741451
201.915070	746.668030	783.076355	762.420227	43.265373
202.292557	738.271790	776.314758	764.500671	68.945412
202.670029	741.838379	782.556213	765.095154	57.116924
203.047485	737.751770	773.491272	758.928040	59.251720
203.424911	742.655762	778.766846	754.767029	33.538918
203.802292	737.677429	770.742126	756.104492	55.730324
204.179688	736.042786	779.286926	762.643066	61.511871
204.557037	742.358459	782.481934	766.729797	60.740849
204.934357	742.358459	784.562439	755.584290	31.337873
205.311661	743.324463	778.692566	754.098328	30.462093
205.688934	732.030457	775.125977	749.714417	41.034336
206.066177	735.225403	778.692566	758.779358	54.187927
206.443390	736.340027	784.785339	760.191162	49.233112
206.820587	742.284180	788.723389	759.893860	37.919853
207.197769	739.312195	785.676941	768.141541	62.179455
207.574921	737.305908	784.488098	761.677246	51.653683
207.952042	735.225403	780.773010	768.513000	73.083084
208.329147	738.271790	777.726563	763.906250	64.971764
208.706223	746.816589	772.748291	775.571777	110.888161
209.083267	751.720642	772.971191	772.302551	96.853539
209.460297	741.764099	775.125977	774.605957	98.441277
209.837280	732.476257	776.983459	767.250000	78.130600
210.214264	727.052063	778.915344	760.562683	64.613380
210.591217	727.275085	770.890686	757.219055	68.654266
210.968124	726.309082	769.999023	757.070496	70.408455
211.345016	731.064453	772.525391	757.590515	63.978443
211.721893	742.878601	779.509827	755.955872	35.699791
212.098724	746.965271	777.800842	749.194336	7.228875
212.475555	745.181946	776.983582	756.847595	36.682545
212.852356	737.528809	783.670715	756.996094	42.190033
213.229126	732.476257	784.933899	762.940369	58.073734
213.605865	729.504089	784.413818	756.327454	48.849930
213.982590	729.355469	781.144531	754.246887	48.063080
214.359283	726.531921	778.320984	748.302734	42.037472
214.735931	722.593933	775.794678	750.903320	53.212391
215.112579	726.383484	769.924805	745.256348	43.344719
215.489197	734.482422	771.708069	748.748535	38.323345
215.865799	739.163513	761.231262	749.788757	48.148293
216.242355	740.872375	756.921692	756.253113	95.834221
216.618896	738.197571	758.927979	753.652527	74.552109
216.995407	736.860046	766.655457	740.129395	10.972657
217.371902	734.036560	771.410828	735.522644	3.976222
217.748367	731.138855	767.472839	741.020996	27.198067
218.124802	726.754883	769.404602	756.773254	70.383514
218.501236	720.810730	764.203430	759.150879	88.356216
218.877609	726.680603	767.175598	753.206726	65.504692
219.253983	730.990234	767.621399	745.999268	40.973400
219.630295	736.414307	768.513000	745.627747	28.703472
220.006592	731.361633	767.398499	739.237732	21.855671
220.382889	731.956055	768.884521	746.519348	39.436497
220.759140	731.733154	773.416992	750.680359	45.454559
221.135391	734.853943	773.714172	760.414063	65.774498
221.511581	736.414307	767.844299	760.265442	75.886543
221.887772	730.247131	762.197266	758.556458	88.604721
222.263931	726.680664	763.014648	762.940369	99.795563
222.640060	721.627991	770.073425	760.636963	80.521461
223.016159	727.572266	773.194153	760.859863	72.964096
223.392212	730.692932	771.336609	747.856873	42.230286
223.768265	734.631042	769.701843	746.668030	34.321964
224.144302	739.014832	768.736023	745.702087	22.499958
224.520294	741.615417	766.358215	754.469788	51.951965
224.896286	742.284180	761.380066	752.983704	56.030518
225.272217	745.553528	764.500671	757.144714	61.176434
225.648148	747.782715	772.302490	759.522400	47.878437
226.024048	749.045715	777.726563	761.900085	44.818657
226.399902	737.008728	783.819397	762.197327	53.809525
226.775772	730.618652	778.395325	756.773254	54.743458
227.151581	730.395752	777.206482	756.698975	56.190586
227.527374	737.974609	774.160095	762.866028	68.788406
227.903137	734.556702	774.308594	764.500671	75.327156
228.278870	734.631042	769.850403	761.974365	77.637192
228.654572	725.120300	775.348877	750.383118	50.295708
229.030273	726.754883	784.562500	749.417297	39.203163
229.405930	725.343201	791.175354	747.782532	34.085670
229.781555	723.708496	789.169189	751.200500	41.997730
230.157181	725.194580	786.494324	752.463684	44.484859
230.532761	719.250305	783.968018	754.321289	54.190704
230.908325	726.606262	784.413818	750.085938	40.616966
231.283859	726.903503	780.104248	759.150879	60.614517
231.659332	735.745544	779.807068	765.392334	67.284988
232.034821	736.340027	779.509949	765.169434	66.781235
232.410263	733.739319	776.686340	757.070496	54.325481
232.785690	726.829163	774.828796	749.268555	46.749088
233.161087	726.086182	766.729797	757.367615	76.965179
233.536469	732.996338	774.977356	758.779297	61.415756
233.911804	735.745544	775.200256	759.076599	59.133759
234.287140	735.671204	777.726563	753.875427	43.286335
234.662430	741.764099	776.166260	754.098328	35.853062
235.037704	744.884766	777.355164	747.336731	7.551387
235.412933	741.689758	781.218811	747.411072	14.473692
235.788162	731.658936	779.212646	747.708252	33.749870
236.163345	727.275085	773.937195	751.794922	52.547638
236.538513	732.253357	771.708069	749.342957	43.314472
236.913635	726.234802	775.348938	748.971436	46.293461
237.288742	724.748718	783.447937	756.921814	54.810093
237.663834	727.052185	782.333313	763.088928	65.188148
238.038879	726.754883	773.639893	761.974426	75.118988
238.413910	728.538147	772.822571	762.791809	77.349236
238.788910	724.228516	773.937195	758.482239	68.908936
239.163879	733.962219	775.720398	756.401672	53.736668
239.538834	739.757996	768.290222	750.531799	37.760124
239.913757	741.689758	763.906311	755.807312	63.545204
240.288651	742.209900	771.485168	759.968262	60.659946
240.663528	741.615417	779.881348	761.528625	52.039001
241.038361	743.324402	791.918396	757.739197	29.663738
241.413177	738.569031	783.670715	759.968262	47.446632
241.787979	733.962219	784.785339	761.677246	54.532322
242.162735	732.401917	779.435547	759.819641	58.293873
242.537476	730.395813	794.370422	753.949768	36.817661
242.912170	735.522644	798.382751	755.212891	31.323915
243.286865	725.863281	805.664368	754.024109	35.288776
243.661514	721.256531	802.097839	752.909485	39.154430
244.036148	714.346375	802.543701	749.937317	40.353767
244.410751	722.148193	802.915222	750.234619	34.774616
244.785339	732.922058	803.286804	755.287109	31.784456
245.159882	738.940613	799.051453	758.259277	32.138405
245.534378	739.014893	794.816162	763.757629	44.340813
245.908890	738.271790	791.175293	758.779358	38.764103
246.283356	728.909668	791.621155	755.658691	42.654106
246.657791	726.086182	802.915222	748.302734	28.916868
247.032196	719.696106	809.379456	745.776367	29.080383
247.406586	720.141907	821.565186	751.646301	31.062292
247.780960	720.290588	824.165833	758.927979	37.195957
248.155289	720.662109	822.977051	768.364441	46.623035
248.529602	725.863281	819.856262	765.615234	42.292469
248.903870	730.024231	817.998718	773.194092	49.070885
249.278122	731.733215	818.593079	764.352051	37.553406
249.652344	732.996399	816.141113	765.838074	39.499413
250.026550	735.671204	813.391846	757.664795	28.298262
250.400711	734.631042	809.453857	756.698914	29.493505
250.774857	731.956116	810.642639	752.092102	25.590134
251.148987	725.640381	808.785156	754.692688	34.941830
251.523071	727.572266	813.317627	759.745300	37.521603
251.897125	734.556702	819.336121	760.116882	30.149040
252.271164	731.956055	817.255676	757.516296	29.965246
252.645187	731.138733	816.438293	755.658691	28.745703
253.019165	726.160461	814.283508	753.206726	30.691477
253.393112	731.287415	820.376282	754.395508	25.938250
253.767044	731.881836	827.509460	755.064270	24.242403
254.140930	734.779602	828.178162	755.064270	21.718395
254.514801	736.488586	824.314392	749.268555	14.551496
254.888657	736.934387	819.410400	755.881531	22.972914
255.262466	728.686829	816.141113	763.683350	40.016930
255.636276	725.640381	817.998596	758.779480	35.881050
256.010010	728.538269	823.274170	751.943542	24.705812
256.383759	731.658936	823.571350	740.798096	9.943336
256.757446	734.259521	830.704407	750.234619	16.563965
257.131134	727.720886	831.596008	754.692688	25.965603
257.504791	730.395752	839.472168	758.482178	25.749311
257.878418	726.680664	837.391602	763.534729	33.288548
258.252014	729.875671	847.793945	759.002258	24.700655
258.625580	730.024231	853.441101	759.150879	23.600216
258.999115	732.476257	867.112732	753.578186	15.673263
259.372650	729.206848	873.874329	753.429626	16.743761
259.746124	730.618652	899.434387	757.219055	15.757064
260.119598	733.293518	920.313477	753.058105	10.568171
260.493042	744.141785	938.963562	759.819641	8.047281
260.866425	742.209900	934.208191	759.522461	9.017039
261.239838	745.033386	931.236023	763.980652	10.175616
261.613159	737.751709	921.056580	757.962097	11.025559
261.986511	734.482422	913.031799	757.293274	12.775655
262.359802	727.200745	894.530457	756.550293	17.539949
262.733063	726.234863	885.316895	755.287170	18.262470
263.106293	726.309082	884.202332	750.977539	15.623504
263.479523	727.349365	886.877258	750.680359	14.625025
263.852692	730.618652	888.214661	757.293274	16.925949
264.225861	737.751709	881.378906	759.670959	15.261211
264.598969	737.677429	885.688477	758.333496	13.955760
264.972076	739.460693	890.963928	753.132324	9.023986
265.345154	734.259521	902.109375	756.327393	13.147388
265.718201	740.649475	903.966980	759.968201	11.828938
266.091217	739.460693	907.310547	764.426453	14.873864
266.464203	740.500977	910.356934	764.872253	14.348203
266.837158	735.894104	922.393982	758.556458	12.151404
267.210114	729.281250	927.818054	754.915588	12.911631
267.583038	724.377258	939.706543	753.578186	13.561057
267.955902	720.736328	941.118164	759.225098	17.464584
268.328766	718.507324	947.285339	762.866028	19.389408
268.701569	718.358704	949.737366	766.358215	20.745003
269.074371	719.696106	959.396790	764.649231	18.753859
269.447144	723.782776	972.102539	756.698914	13.255545
269.819885	730.915833	981.984863	755.510071	9.795807
270.192596	730.544373	980.572998	755.287170	9.895986
270.565277	736.414246	988.671936	762.866028	10.486016
270.937927	731.213074	1000.114563	762.494446	11.633023
271.310577	733.813660	1036.225708	762.791687	9.582299
271.683136	730.618652	1056.881836	766.135254	10.885875
272.055725	733.813660	1076.869263	759.968079	7.623959
272.428284	732.253235	1078.652588	757.441895	7.271566
272.800812	730.841553	1081.476074	757.739075	7.671099
273.173279	730.841553	1078.801147	761.528564	8.819131
273.545776	729.727051	1080.435913	764.352051	9.872862
273.918152	729.281189	1073.674316	761.379944	9.320382
274.290558	734.185120	1064.609375	762.123047	8.455169
274.662964	736.934387	1053.835449	759.002258	6.963647
275.035278	744.587585	1049.451660	755.732971	3.655854
275.407593	741.912659	1057.996460	754.098328	3.855202
275.779907	741.912659	1066.689819	757.516296	4.804413
276.152161	737.231628	1078.206665	758.556458	6.254074
276.524384	731.064453	1083.556519	763.386169	9.169488
276.896606	723.857117	1100.126099	763.980652	10.663525
277.268799	726.754883	1112.534546	765.763855	10.111723
277.640930	732.401855	1129.401245	762.866028	7.673607
278.013031	739.089172	1128.658325	761.231384	5.683769
278.385162	734.779602	1133.413696	760.934143	6.561039
278.757233	733.590820	1134.082397	761.008484	6.846003
279.129272	725.789001	1130.292969	759.819641	8.412931
279.501282	725.120300	1138.614868	757.739075	7.888562
279.873230	722.965515	1154.515747	755.881592	7.627403
280.245178	731.287354	1174.948975	758.556458	6.146374
280.617126	725.417480	1190.701172	759.522400	7.329919
280.988983	727.052063	1203.555542	761.379944	7.204120
281.360870	727.126465	1232.459351	764.575012	7.410669
281.732697	730.470032	1257.424927	771.782410	7.839832
282.104492	727.349426	1283.579590	765.763855	6.906211
282.476288	723.931458	1308.099487	759.893982	6.156195
282.848053	735.522644	1320.805054	752.983826	2.983377
283.219757	740.575195	1323.554321	765.541016	4.282455
283.591461	739.460632	1315.158203	772.971252	5.820872
283.963135	732.179016	1321.771118	773.937195	7.082554
284.334747	728.389587	1330.910278	774.011414	7.571827
284.706360	730.172852	1347.628418	761.082764	5.006014
285.077942	727.275085	1367.095703	764.129211	5.760072
285.449524	728.315247	1379.430054	757.813477	4.530419
285.821014	727.943787	1393.770508	763.980530	5.412331
286.192535	731.807434	1411.157227	759.373779	4.057754
286.563995	736.785828	1446.228149	757.664795	2.943011
286.935425	734.185242	1468.518921	756.476013	3.035510
287.306824	731.064453	1487.763306	761.751465	4.055380
287.678223	727.423645	1474.166016	767.992859	5.432826
288.049561	732.476257	1462.351929	777.132141	6.118287
288.420898	727.869446	1436.048828	767.472839	5.592283
288.792145	728.761047	1424.977661	759.596680	4.429029
289.163452	727.200867	1432.333618	759.373779	4.562675
289.534668	726.160461	1451.280884	761.231384	4.836565
289.905914	724.525879	1481.150391	758.779480	4.527160
290.277039	730.692932	1508.493774	754.692688	3.085591
290.648193	736.860046	1546.759766	757.441956	2.541291
291.019318	737.900330	1590.747070	772.079590	4.007668
291.390381	725.566101	1606.796387	771.039307	5.160195
291.761475	721.776672	1592.010132	774.457214	6.053610
292.132507	717.244141	1570.908203	764.352051	5.518320
292.503510	720.885010	1553.892944	762.494568	4.995098
292.874481	723.634216	1554.858765	766.729797	5.184589
293.245422	722.668274	1553.149902	763.906250	4.965549
293.616364	719.176025	1580.493164	770.221985	5.926500
293.987213	721.107910	1610.511353	761.454285	4.536341
294.358093	726.383362	1655.093140	761.379944	3.768301
294.728943	737.900391	1706.064819	757.813477	2.056787
295.099731	736.785828	1745.519653	762.568848	2.555979
295.470490	737.305969	1773.977539	759.002258	2.092880
295.841248	737.900391	1790.175415	757.144714	1.828830
296.211975	741.318298	1813.952148	756.401672	1.406200
296.582642	743.695984	1860.911621	762.717468	1.702580
296.953308	733.813721	1909.134155	763.163269	2.497153
297.323883	729.058289	1959.362793	762.791748	2.741879
297.694519	724.748718	1980.687500	768.884521	3.514169
298.065063	736.340027	1975.040527	769.404602	2.669296
298.435608	737.974609	1957.133667	764.277771	2.157484
298.806122	743.250183	1912.180542	759.522461	1.392066
299.176575	743.621643	1859.128418	754.395508	0.965827
299.547028	744.290344	1809.345703	754.692688	0.976695
299.917450	743.027161	1784.825562	755.361511	1.183948
300.287872	731.361755	1781.184937	766.358215	3.333557
300.658234	728.166687	1773.457397	768.661621	3.874035
301.028564	727.795166	1778.212524	766.581116	3.692432
301.398865	728.983948	1789.581055	755.658691	2.515068
301.769135	733.293518	1800.280640	752.909485	1.838445
302.139374	730.098450	1802.658325	755.138489	2.334605
302.509583	732.550476	1801.395142	751.200500	1.744877
302.879791	733.888000	1799.463257	754.841309	1.966385
303.249939	735.596985	1789.952515	754.544128	1.797036
303.620087	744.364685	1769.593750	767.770020	2.282937
303.990173	746.073547	1766.547241	761.751465	1.536337
304.360260	743.027161	1755.179077	760.562683	1.732499
304.730286	734.036621	1775.537720	752.686523	1.790675
305.100281	730.395752	1785.271484	755.732971	2.401915
305.470276	733.442139	1799.983398	761.602844	2.640377
305.840179	732.476257	1797.977173	765.466614	3.096230
306.210144	735.819824	1801.098022	765.986755	2.831836
306.579987	736.191406	1817.221680	766.283936	2.783690
306.949890	738.049011	1827.995605	767.472839	2.699566
307.319702	735.448303	1842.410156	773.342773	3.423286
307.689484	729.578430	1860.391479	765.020813	3.134239
308.059265	734.853943	1888.254883	761.082764	2.274042
308.429016	730.321472	1928.526978	762.643066	2.697500
308.798737	739.609314	1979.721802	763.460449	1.923304
309.168396	730.693054	2026.681030	767.992920	2.878103
309.538055	731.287415	2058.854248	763.906250	2.457039
309.907684	720.439209	2069.330811	765.986633	3.376656
310.277313	724.525879	2089.912598	774.011414	3.624287
310.646851	725.417480	2111.906250	778.618164	3.837080
311.016388	733.367859	2136.203125	781.070251	3.400427
311.385895	734.779541	2137.466064	774.011414	2.796910
311.755371	737.677429	2142.444580	768.810242	2.216226
312.124817	729.801270	2142.816162	766.952698	2.629231
312.494232	724.748779	2144.450928	763.237549	2.711045
312.863617	729.875671	2126.246826	763.757629	2.426429
313.232971	739.014893	2119.187744	764.649231	1.857328
313.602295	740.946777	2107.002197	768.067200	1.985309
313.971619	735.225403	2114.209717	765.095154	2.166069
314.340820	729.429871	2124.909180	764.872253	2.539800
314.710083	725.937561	2148.463135	763.831970	2.663882
315.079285	727.943665	2180.487549	763.237549	2.429798
315.448486	732.179016	2205.379150	761.305664	1.977100
315.817596	727.275085	2204.561523	759.745361	2.197968
316.186707	723.931396	2166.221436	766.061035	2.921024
316.555786	722.148132	2112.797607	769.033203	3.371452
316.924866	739.386414	2075.200439	772.674011	2.491934
317.293884	740.278015	2064.352295	772.079529	2.401792
317.662872	742.284180	2065.912842	768.736023	1.998434
318.031830	732.179016	2081.070801	769.776184	2.787263
318.400757	737.603088	2088.426758	767.101318	2.183722
318.769684	736.117004	2105.293213	772.376770	2.648291
319.138550	740.649475	2125.354736	771.782410	2.248344
319.507416	739.609192	2139.695313	775.571777	2.568598
319.876190	738.940613	2156.636475	768.438782	2.080712
320.244995	739.757874	2152.401367	771.708069	2.261731
320.613770	739.460693	2139.398193	774.531555	2.505173
320.982483	739.460693	2119.262451	786.420105	3.403345
321.351166	739.014832	2095.485352	784.339539	3.341371
321.719818	733.144958	2091.993164	776.463440	3.187882
322.088440	731.361633	2093.850586	770.965027	2.906694
322.457062	727.423645	2121.491455	769.999084	3.054044
322.825623	733.144958	2147.720215	775.125977	2.967747
323.194183	732.179016	2188.958008	773.862854	2.861370
323.562653	735.819885	2233.614258	776.760681	2.733406
323.931183	721.479492	2286.517578	778.618225	3.650948
324.299591	722.519714	2340.238525	784.265198	3.816824
324.668060	713.231750	2393.662109	784.933899	4.266892
325.036407	722.445313	2434.528564	784.265320	3.610806
