Jaz Data File
++++++++++++++++++++++++++++++++++++
Date: Fri Jun 04 14:54:38 2021
User: jaz
Dark Spectrum Present: Yes
Reference Spectrum Present: Yes
Processed Spectrum Present: Yes
Spectrometers: JAZA3586
Integration Time (usec): 138000 (JAZA3586)
Spectra Averaged: 10 (JAZA3586)
Boxcar Smoothing: 1 (JAZA3586)
Correct for Electrical Dark: No (JAZA3586)
Strobe/Lamp Enabled: Yes (JAZA3586)
Correct for Detector Non-linearity: No (JAZA3586)
Correct for Stray Light: No (JAZA3586)
Number of Pixels in Processed Spectrum: 2048
>>>>>Begin Processed Spectral Data<<<<<
W	D	R	S	P
191.335022	0.000000	0.000000	0.000000	0.000000
191.713211	291.266663	290.003540	293.792969	-200.004837
192.091385	583.202087	588.403259	586.917175	71.427902
192.469528	880.412903	884.796875	881.304504	20.337755
192.847641	890.889648	889.106384	894.679016	-212.496155
193.225739	901.886475	892.004150	907.756348	-59.397697
193.603790	917.267090	903.149597	924.177246	-48.947475
193.981842	927.595215	919.124695	922.839844	56.140251
194.359863	942.975830	928.115234	923.657227	129.998856
194.737854	944.461914	937.625977	932.796387	170.649994
195.115829	942.901550	937.328796	935.842773	126.665863
195.493774	940.598145	937.848938	941.266846	-24.323423
195.871704	941.489746	940.598145	933.985291	841.682617
196.249603	942.158447	941.564026	944.090332	-325.002563
196.627457	938.443359	944.907715	946.690979	127.586113
197.005310	929.304138	944.313293	952.486633	154.455688
197.383133	935.917053	952.412354	950.851990	90.540558
197.760910	939.409241	955.310059	954.938477	97.663124
198.138687	946.988220	953.749695	950.257507	48.351688
198.516449	940.003723	943.347351	941.638367	48.888321
198.894180	931.681824	932.499207	927.892395	-463.605133
199.271866	929.601318	921.279480	919.941956	116.072464
199.649536	929.304138	920.313538	924.251526	56.198830
200.027191	931.087402	921.353760	935.471252	-45.038124
200.404816	932.350586	929.378479	934.579590	-74.997437
200.782410	934.133850	941.564148	927.669495	-86.999954
201.159988	935.917053	955.533020	918.530273	-88.635857
201.537537	929.972839	965.192383	920.982239	-25.527306
201.915070	923.211365	965.861084	919.273193	-9.233757
202.292557	916.003906	964.820801	921.799561	11.872231
202.670029	920.907898	957.762146	924.548767	9.879103
203.047485	923.805725	955.087219	925.737610	6.175807
203.424911	924.920227	958.505066	926.703613	5.310093
203.802292	917.341370	966.604187	928.635437	22.926149
204.179688	918.307373	962.740417	930.492981	27.424652
204.557037	923.285645	961.551514	926.554932	8.543612
204.934357	921.799561	959.248108	926.852112	13.491982
205.311661	923.880066	972.845459	918.604492	-10.774086
205.688934	921.948181	965.117981	919.719055	-5.163624
206.066177	919.421875	964.523621	909.539612	-21.911043
206.443390	912.734680	961.031311	917.192871	9.230853
206.820587	901.886414	966.158203	919.050354	26.705248
207.197769	901.812195	970.616455	919.941956	26.349764
207.574921	906.567566	967.347107	924.474426	29.461987
207.952042	912.437317	968.610291	916.969910	8.068992
208.329147	917.118469	967.049866	926.554932	18.898855
208.706223	956.498840	1006.653259	963.483398	13.926107
209.083267	966.826965	1006.355957	978.492493	29.511320
209.460297	968.313049	1004.498474	976.412048	22.381937
209.837280	922.022522	965.712402	937.997559	36.564613
210.214264	918.307312	962.814636	926.554871	18.530790
210.591217	914.220642	966.455566	918.753174	8.677205
210.968124	922.245361	970.690735	912.957520	-19.171783
211.345016	918.084290	974.034363	915.929688	-3.850937
211.721893	918.678772	973.514221	921.353760	4.878209
212.098724	908.499329	970.244934	922.691223	22.984461
212.475555	910.951355	970.764954	922.914063	19.999979
212.852356	913.403381	961.700134	920.759277	15.230622
213.229126	920.536438	954.938477	925.291809	13.822934
213.605865	920.536438	950.183167	916.449707	-13.784762
213.982590	916.821289	951.446350	914.517883	-6.652424
214.359283	914.443604	957.762024	904.709961	-22.469986
214.735931	913.923523	960.214050	914.072083	0.320929
215.112579	916.598328	963.334717	921.873840	11.287806
215.489197	911.619934	963.334778	921.130859	18.391094
215.865799	908.647949	964.003479	916.003967	13.288678
216.242355	908.425049	963.483398	912.511719	7.422434
216.618896	907.533447	961.031433	917.935791	19.444365
216.995407	907.756348	962.888977	910.951355	5.795130
217.371902	907.979248	962.443115	909.242371	2.319194
217.748367	911.620056	973.514221	913.997742	3.841534
218.124802	902.852295	981.539001	926.926453	30.594950
218.501236	903.223877	984.288147	925.663330	27.681065
218.877609	902.480896	975.074524	920.462097	24.769669
219.253983	910.579834	970.690735	924.325867	22.867786
219.630295	911.099854	975.520325	929.675598	28.835157
220.006592	907.236145	981.613281	936.808777	39.760380
220.382889	897.948303	985.848450	929.824219	36.263779
220.759140	895.050598	989.266418	932.499207	39.747684
221.135391	899.805908	990.158020	925.811829	28.782858
221.511581	903.743958	989.935120	933.687988	34.741417
221.887772	907.533386	994.616211	933.390808	29.692907
222.263931	914.443542	1013.414856	944.387634	30.255323
222.640060	922.765442	1020.102051	939.706543	17.404655
223.016159	920.164856	1024.857422	940.895325	19.801281
223.392212	923.434265	1020.845032	940.300964	17.315025
223.768265	919.273254	1023.445618	948.399902	27.960052
224.144302	916.449768	1022.702637	941.935608	23.986025
224.520294	902.555176	1032.584839	941.489746	29.942837
224.896286	905.601563	1048.039917	940.375244	24.413145
225.272217	908.499451	1058.888062	947.508301	25.938700
225.648148	918.158691	1062.306030	955.904480	26.185560
226.024048	911.174316	1065.649658	958.059326	30.351130
226.399902	909.688171	1089.129272	966.529785	31.677031
226.775772	906.047363	1105.475952	965.786804	29.955305
227.151581	906.418884	1133.562378	974.703064	30.062134
227.527374	906.047363	1150.206177	977.377930	29.214823
227.903137	906.716125	1181.859009	993.130127	31.406956
228.278870	909.168152	1231.195923	1006.207458	30.133831
228.654572	904.115479	1311.071533	1029.167114	30.728535
229.030273	894.307556	1406.699219	1049.674683	30.321947
229.405930	892.747131	1498.091431	1073.302856	29.826948
229.781555	903.743896	1561.397339	1089.054932	28.177612
230.157181	908.870850	1578.264038	1089.500854	26.984142
230.532761	914.963623	1545.496460	1086.305786	27.174185
230.908325	911.099915	1484.716919	1073.971558	28.393797
231.283859	919.347473	1439.095093	1064.163452	27.862749
231.659332	913.254639	1408.556641	1045.216431	26.642693
232.034821	918.084412	1396.593872	1042.541382	26.009302
232.410263	915.186584	1369.176270	1038.529175	27.168589
232.785690	911.471497	1345.027832	1037.191772	28.997448
233.161087	903.446777	1312.557495	1019.507629	28.369057
233.536469	904.487061	1300.891968	1011.334290	26.954063
233.911804	912.214539	1306.167603	1007.693542	24.236137
234.287140	915.558105	1326.600830	1016.907043	24.656546
234.662430	910.059753	1350.674927	1027.606567	26.677887
235.037704	917.564392	1361.374390	1033.922363	26.217970
235.412933	915.632507	1367.169922	1036.225708	26.707245
235.788162	912.808899	1367.764526	1029.687134	25.690029
236.163345	905.230164	1370.365112	1027.681030	26.325880
236.538513	902.852356	1381.807617	1028.869751	26.310890
236.913635	906.047363	1385.448364	1033.105103	26.503437
237.288742	912.511719	1400.829102	1044.027466	26.932432
237.663834	915.038025	1395.033691	1046.256592	27.337448
238.038879	912.065918	1398.228516	1052.200806	28.824696
238.413910	904.932861	1387.826172	1045.290649	29.066004
238.788910	898.468567	1398.823242	1049.600220	30.204905
239.163879	891.929932	1415.838501	1054.875732	31.101954
239.538834	887.991882	1443.850586	1065.872559	32.001060
239.913757	902.629456	1477.658203	1078.578369	30.598282
240.288651	907.236145	1518.450317	1087.271851	29.455421
240.663528	911.842957	1580.195923	1096.856812	27.682058
241.038361	905.081482	1651.452271	1113.649292	27.944262
241.413177	908.945129	1750.349243	1137.649048	27.181221
241.787979	908.870850	1853.184204	1175.171875	28.200493
242.162735	910.802734	1980.539063	1214.403687	28.380915
242.537476	913.031799	2100.760986	1252.520996	28.583046
242.912170	913.031799	2234.580322	1289.672241	28.499931
243.286865	916.078186	2302.195557	1308.693848	28.324848
243.661514	913.329041	2309.848877	1305.870361	28.108540
244.036148	907.459167	2226.852783	1277.709595	28.062168
244.410751	906.270264	2145.342529	1245.982300	27.416645
244.785339	905.229980	2046.519897	1220.347900	27.610682
245.159882	908.870911	2004.464355	1209.574097	27.446602
245.534378	906.716125	2011.374634	1212.917603	27.719109
245.908890	903.372498	2116.884521	1240.558228	27.785942
246.283356	906.344543	2283.471191	1287.220337	27.657280
246.657791	907.756348	2500.137939	1353.944214	28.020161
247.032196	922.394043	2763.541016	1432.184937	27.688766
247.406586	923.434265	3024.789795	1504.630249	27.658148
247.780960	920.090637	3206.682617	1544.456421	27.305517
248.155289	912.288818	3247.400391	1550.177734	27.317278
248.529602	911.174316	3139.661377	1514.958374	27.093901
248.903870	908.127930	2940.753174	1460.791504	27.189644
249.278122	904.264099	2705.733643	1396.148315	27.304609
249.652344	899.731628	2504.075928	1343.021729	27.630610
250.026550	902.926575	2352.275635	1307.059204	27.883732
250.400711	906.790344	2250.258057	1281.796265	27.913280
250.774857	906.121765	2172.314453	1266.044067	28.425556
251.148987	903.149597	2138.135010	1256.830566	28.638475
251.523071	900.549011	2143.930664	1259.431152	28.863396
251.897125	904.115540	2196.091064	1276.372192	28.812979
252.271164	910.356934	2263.186523	1298.737305	28.708742
252.645187	922.765564	2312.895264	1305.201538	27.510813
253.019165	929.824219	2334.888672	1303.492554	26.594391
253.393112	929.378418	2316.535889	1293.907593	26.278860
253.767044	918.976074	2260.511719	1280.384521	26.939907
254.140930	920.164856	2173.651611	1254.229980	26.650869
254.514801	921.725281	2086.643311	1235.134277	26.903954
254.888657	920.684998	2017.839233	1221.759644	27.441414
255.262466	912.585938	1986.780396	1211.208618	27.799685
255.636276	922.171082	1994.285034	1205.190063	26.398216
256.010010	922.022400	2020.662476	1219.307739	27.059391
256.383759	922.914063	2071.931396	1245.462280	28.071657
256.757446	904.561340	2120.822510	1259.951294	29.219870
257.131134	908.276550	2198.989014	1280.533081	28.841167
257.504791	912.065918	2287.186279	1305.350220	28.599991
257.878418	919.273254	2408.968506	1347.331421	28.734612
258.252014	920.684998	2560.100342	1381.287598	28.095541
258.625580	925.143127	2757.968506	1436.048828	27.875305
258.999115	921.353699	2991.799072	1503.589844	28.121300
259.372650	919.644775	3289.307373	1589.929688	28.286091
259.746124	909.316711	3606.430908	1677.606812	28.485634
260.119598	909.762512	3924.594971	1750.274902	27.879240
260.493042	906.716064	4129.001953	1790.398438	27.424084
260.866425	909.390930	4170.686035	1791.810059	27.057322
261.239838	917.118469	4022.823486	1753.544067	26.931908
261.613159	913.106201	3749.538330	1683.699585	27.167700
261.986511	911.620117	3436.426514	1599.588989	27.248381
262.359802	903.595398	3174.806641	1524.320313	27.330128
262.733063	911.620117	2994.919922	1468.741821	26.742271
263.106293	911.768738	2894.016602	1441.398438	26.718643
263.479523	917.489990	2830.562256	1427.280884	26.647758
263.852692	918.827454	2794.970947	1423.862915	26.918806
264.225861	920.833679	2752.321289	1415.392578	27.003126
264.598969	917.490051	2727.207031	1409.002441	27.159626
264.972076	911.694397	2718.587891	1404.544312	27.276091
265.345154	910.059753	2747.417236	1404.470093	26.908773
265.718201	914.517883	2796.234375	1426.166382	27.190519
266.091217	918.753113	2883.391357	1453.732788	27.230442
266.464203	912.437500	2996.703125	1485.831543	27.510603
266.837158	907.607727	3112.169189	1507.156372	27.195824
267.210114	900.474670	3210.843750	1531.973633	27.333250
267.583038	906.418945	3274.595459	1552.183960	27.268450
267.955902	902.852356	3308.997314	1562.437622	27.412531
268.328766	909.019470	3307.214111	1564.741089	27.342302
268.701569	912.363098	3300.824219	1554.412964	26.881319
269.074371	916.524109	3292.725342	1541.484253	26.300810
269.447144	915.632385	3323.040771	1544.902222	26.138889
269.819885	912.734680	3373.120850	1555.973267	26.143805
270.192596	911.545837	3476.327393	1592.084473	26.533981
270.565277	916.895691	3616.611084	1639.563843	26.768309
270.937927	909.019531	3820.423096	1711.340332	27.557869
271.310577	903.669678	4052.247803	1777.023926	27.738052
271.683136	893.787415	4273.966797	1835.574585	27.862047
272.055725	897.725403	4425.767090	1863.289429	27.368271
272.428284	904.932800	4501.332520	1878.298462	27.065002
272.800812	907.236267	4432.231445	1852.441040	26.814358
273.173279	909.465332	4301.606934	1818.261719	26.791227
273.545776	910.654236	4151.070313	1770.039429	26.520828
273.918152	909.242432	4054.922607	1747.154297	26.636906
274.290558	909.242371	3982.477295	1722.114258	26.450041
274.662964	906.195984	3915.827881	1718.844849	27.001604
275.035278	905.007080	3885.364014	1696.405396	26.553810
275.407593	907.384766	3881.500000	1702.423828	26.731953
275.779907	904.115479	3928.756592	1708.145142	26.582647
276.152161	909.093750	4013.684570	1733.110962	26.541895
276.524384	908.499329	4117.708496	1760.231445	26.540249
276.896606	905.898743	4197.509277	1779.847290	26.550787
277.268799	903.743958	4226.933105	1785.122925	26.522081
277.640930	898.988586	4239.490234	1777.543945	26.300102
278.013031	901.663513	4238.524902	1778.435547	26.275351
278.385162	905.675842	4231.540039	1777.543945	26.214783
278.757233	912.511719	4210.363770	1780.961914	26.333813
279.129272	913.106140	4214.227539	1782.967896	26.350492
279.501282	914.146301	4222.697754	1790.398438	26.484465
279.873230	910.208313	4284.889160	1807.265137	26.581974
280.245178	917.267090	4385.123535	1826.732422	26.225576
280.617126	914.443542	4545.840332	1862.397583	26.104393
280.988983	910.579773	4718.223145	1902.892578	26.061075
281.360870	912.214539	4892.313965	1951.932495	26.122915
281.732697	923.285645	5068.336914	2003.944336	26.071056
282.104492	930.641602	5202.676270	2042.730347	26.031828
282.476288	925.143250	5301.275879	2067.176025	26.096848
282.848053	911.025696	5351.133301	2078.395752	26.291483
283.219757	910.059753	5349.721680	2076.240967	26.267340
283.591461	909.836914	5289.536621	2058.854004	26.235065
283.963135	911.620117	5220.732422	2050.457764	26.428591
284.334747	915.260925	5208.620605	2047.485718	26.371534
284.706360	916.449768	5279.951172	2067.101563	26.369921
285.077942	921.205139	5423.281738	2092.290283	26.012112
285.449524	911.025696	5586.673340	2124.537842	25.953886
285.821014	901.291992	5683.860840	2136.351807	25.824194
286.192535	899.731628	5805.717285	2164.809814	25.786421
286.563995	901.589172	5880.763184	2173.948975	25.553635
286.935425	909.465271	5946.372559	2189.180908	25.406773
287.306824	909.465271	5879.648438	2163.917969	25.239565
287.678223	916.226807	5741.742676	2140.215576	25.364933
288.049561	916.895569	5607.700684	2111.683350	25.470848
288.420898	912.511719	5480.048340	2091.398682	25.810125
288.792145	904.412781	5455.156738	2081.144775	25.858011
289.163452	908.202209	5483.764160	2080.550537	25.621954
289.534668	907.607727	5606.437988	2102.395508	25.427347
289.905914	910.356934	5751.922363	2138.283447	25.362179
290.277039	907.830566	5917.320313	2189.701416	25.588850
290.648193	915.929688	6094.309082	2228.784424	25.352617
291.019318	913.849121	6237.861816	2252.932617	25.151772
291.390381	911.545837	6273.155762	2257.093750	25.095966
291.761475	905.898743	6193.800781	2237.031982	25.173185
292.132507	906.790466	6076.847656	2206.864990	25.146231
292.503510	910.877136	5968.960938	2177.218506	25.035988
292.874481	923.508545	5918.286621	2170.828369	24.972477
293.245422	921.279480	5931.809082	2202.927002	25.579081
293.616364	913.626282	6057.083496	2238.592529	25.760229
293.987213	902.183594	6231.769531	2283.694092	25.921535
294.358093	906.047363	6451.705566	2325.303467	25.592203
294.728943	901.960754	6667.703613	2377.686768	25.594727
295.099731	897.576843	6882.289551	2428.287109	25.577003
295.470490	900.251770	7033.421387	2472.943115	25.642393
295.841248	905.898743	7162.856934	2504.150391	25.543591
296.211975	905.973083	7264.800293	2535.580322	25.627480
296.582642	911.768738	7425.145996	2575.406494	25.541859
296.953308	915.706726	7585.267578	2608.471436	25.380451
297.323883	915.855286	7717.897949	2637.895020	25.316511
297.694519	912.288757	7727.631348	2621.028320	25.071953
298.065063	906.641785	7624.425293	2602.229736	25.240288
298.435608	901.812195	7408.056152	2533.499756	25.078793
298.806122	900.994812	7093.755371	2464.472656	25.246862
299.176575	899.954590	6753.522949	2383.111328	25.337652
299.547028	894.901917	6503.122559	2327.310059	25.541224
299.917450	891.038269	6358.455078	2290.975830	25.605099
300.287872	893.564514	6283.855469	2265.118408	25.444897
300.658234	910.728455	6198.184082	2253.007080	25.386097
301.028564	914.592285	6121.949707	2235.694580	25.369917
301.398865	910.654114	6059.757813	2231.979248	25.661266
301.769135	898.171326	6019.857910	2213.923828	25.689827
302.139374	893.490234	6000.835938	2204.264404	25.664490
302.509583	900.251770	5968.365723	2180.636230	25.263531
302.879791	908.499329	5888.268066	2166.816162	25.268581
303.249939	909.539612	5768.937500	2142.518799	25.373087
303.620087	908.202148	5660.678223	2125.875244	25.621866
303.990173	913.923523	5595.664063	2108.414063	25.513811
304.360260	916.672668	5544.766113	2095.039307	25.461170
304.730286	920.759277	5528.122559	2082.407959	25.212873
305.100281	911.322937	5510.661621	2083.076416	25.476563
305.470276	904.041199	5525.076172	2077.058350	25.384293
305.840179	898.319824	5518.834473	2093.330566	25.863152
306.210144	903.669617	5542.240234	2091.250244	25.602295
306.579987	917.192688	5563.267578	2110.345947	25.680889
306.949890	924.771667	5629.471191	2108.116699	25.152401
307.319702	925.291748	5700.281738	2137.020508	25.376570
307.689484	918.381653	5818.200684	2156.264893	25.263859
308.059265	915.855408	5913.753906	2185.762939	25.408829
308.429016	911.471497	6054.111816	2208.202393	25.215277
308.798737	907.161926	6158.878418	2234.357178	25.271648
309.168396	901.440613	6299.459473	2264.598389	25.252926
309.538055	905.155762	6377.031250	2276.932617	25.069592
309.907684	913.849121	6430.454590	2292.461914	24.990236
310.277313	908.722351	6445.463379	2295.656982	25.049656
310.646851	904.858459	6442.789063	2298.777588	25.170399
311.016388	899.583008	6442.045410	2296.994385	25.212826
311.385895	916.078186	6364.622559	2284.437012	25.114210
311.755371	913.106140	6309.712402	2269.130859	25.127359
312.124817	905.824463	6235.632813	2248.103271	25.184372
312.494232	905.973145	6194.989746	2222.691650	24.895336
312.863617	911.397217	6105.231934	2202.035400	24.849426
313.232971	916.078186	6059.164063	2184.499756	24.662657
313.602295	907.236145	6051.361816	2186.580322	24.870005
313.971619	911.991516	6116.971191	2202.852783	24.800507
314.340820	915.781067	6159.546875	2218.010498	24.833862
314.710083	919.198975	6223.521484	2233.614014	24.780075
315.079285	915.632385	6229.837402	2231.087891	24.753572
315.448486	920.982239	6239.422363	2233.836914	24.684959
315.817596	923.657166	6113.776855	2196.685547	24.527918
316.186707	916.821289	5963.982910	2155.521729	24.542517
316.555786	914.963684	5769.160645	2101.578125	24.445126
316.924866	909.093811	5622.338379	2065.318359	24.531393
317.293884	911.248596	5529.682129	2044.439453	24.536261
317.662872	900.549011	5472.841309	2031.659302	24.738363
318.031830	900.400391	5477.818848	2037.380493	24.838894
318.400757	902.555176	5501.150391	2043.250366	24.805296
318.769684	909.093750	5555.985840	2054.321533	24.645027
319.138550	903.298157	5595.886719	2070.296631	24.868973
319.507416	898.096985	5617.657715	2082.036377	25.085798
319.876190	901.069092	5601.830566	2074.234619	24.956924
320.244995	910.059753	5556.357422	2062.495117	24.803303
320.613770	916.375488	5478.488281	2032.030884	24.454796
320.982483	910.802795	5418.600098	2020.142212	24.609344
321.351166	905.675842	5369.411621	1996.216797	24.431128
