Jaz Data File
++++++++++++++++++++++++++++++++++++
Date: Fri Jun 04 16:39:27 2021
User: jaz
Dark Spectrum Present: Yes
Reference Spectrum Present: Yes
Processed Spectrum Present: Yes
Spectrometers: JAZA3586
Integration Time (usec): 24500 (JAZA3586)
Spectra Averaged: 10 (JAZA3586)
Boxcar Smoothing: 1 (JAZA3586)
Correct for Electrical Dark: No (JAZA3586)
Strobe/Lamp Enabled: Yes (JAZA3586)
Correct for Detector Non-linearity: No (JAZA3586)
Correct for Stray Light: No (JAZA3586)
Number of Pixels in Processed Spectrum: 2048
>>>>>Begin Processed Spectral Data<<<<<
W	D	R	S	P
191.335022	0.000000	0.000000	0.000000	0.000000
191.713211	234.722305	237.694412	235.465332	25.000000
192.091385	468.330078	472.342407	477.246368	222.222305
192.469528	711.002747	710.185364	713.083191	-254.525085
192.847641	720.513489	715.535156	718.061523	49.252743
193.225739	732.476257	730.321472	717.392761	700.000000
193.603790	736.860046	741.615417	728.463867	-176.562012
193.981842	742.209778	745.999268	741.615417	-15.684443
194.359863	749.714417	747.931152	749.417236	16.664955
194.737854	753.281006	751.571960	748.971375	252.166000
195.115829	747.039551	756.253113	745.033386	-21.774038
195.493774	744.364685	757.144714	743.398743	-7.558217
195.871704	749.268555	759.448059	745.404968	-37.954563
196.249603	759.002258	755.435791	751.349121	214.585938
196.627457	760.636963	752.909485	745.702148	193.268936
197.005310	755.881531	750.606140	748.674255	136.620697
197.383133	752.166443	758.853760	740.055115	-181.108932
197.760910	752.389343	761.008484	745.925049	-74.999290
198.138687	755.287109	762.420227	747.633972	-107.290215
198.516449	752.240723	760.859863	751.126160	-12.931254
198.894180	751.274841	756.847473	752.463684	21.333595
199.271866	746.296570	753.726746	753.578186	98.000595
199.649536	747.931152	745.553467	748.302673	-15.625320
200.027191	745.330566	743.918762	752.315002	-494.717041
200.404816	742.061218	748.822815	744.884766	41.758591
200.782410	740.872375	757.516296	761.157043	121.874336
201.159988	741.615479	771.856628	765.540955	79.115631
201.537537	743.101563	774.977356	775.497559	101.631966
201.915070	746.668030	783.076355	770.147705	64.489853
202.292557	738.271790	776.314758	763.014648	65.039246
202.670029	741.838379	782.556213	761.974426	49.452648
203.047485	737.751770	773.491272	758.630859	58.420204
203.424911	742.655762	778.766846	759.076660	45.473289
203.802292	737.677429	770.742126	755.212891	53.033787
204.179688	736.042786	779.286926	752.240723	37.456951
204.557037	742.358459	782.481934	754.469910	30.185448
204.934357	742.358459	784.562439	758.185059	37.500252
205.311661	743.324463	778.692566	764.500732	59.873920
205.688934	732.030457	775.125977	765.318054	77.241432
206.066177	735.225403	778.692566	758.333679	53.162605
206.443390	736.340027	784.785339	758.927979	46.625671
206.820587	742.284180	788.723389	759.448181	36.960152
207.197769	739.312195	785.676941	762.940369	50.961510
207.574921	737.305908	784.488098	756.401672	40.472401
207.952042	735.225403	780.773010	755.807312	45.187683
208.329147	738.271790	777.726563	755.881592	44.632881
208.706223	746.816589	772.748291	764.129211	66.762383
209.083267	751.720642	772.971191	762.791748	52.097977
209.460297	741.764099	775.125977	764.203552	67.260765
209.837280	732.476257	776.983459	760.265442	62.437500
210.214264	727.052063	778.915344	759.819641	63.180687
210.591217	727.275085	770.890686	766.432617	89.778732
210.968124	726.309082	769.999023	770.742188	101.700996
211.345016	731.064453	772.525391	772.079590	98.924767
211.721893	742.878601	779.509827	761.825867	51.724358
212.098724	746.965271	777.800842	749.268738	7.470161
212.475555	745.181946	776.983582	749.565918	13.785367
212.852356	737.528809	783.670715	751.943542	31.240005
213.229126	732.476257	784.933899	751.943604	37.110600
213.605865	729.504089	784.413818	749.937439	37.212620
213.982590	729.355469	781.144531	748.451355	36.872429
214.359283	726.531921	778.320984	749.194336	43.759075
214.735931	722.593933	775.794678	752.389343	56.005627
215.112579	726.383484	769.924805	755.287170	66.382202
215.489197	734.482422	771.708069	759.745300	67.864174
215.865799	739.163513	761.231262	761.305664	100.337151
216.242355	740.872375	756.921692	758.110596	107.407814
216.618896	738.197571	758.927979	758.927979	100.000000
216.995407	736.860046	766.655457	753.875427	57.107388
217.371902	734.036560	771.410828	756.104492	59.045792
217.748367	731.138855	767.472839	752.389343	58.486534
218.124802	726.754883	769.404602	751.572021	58.188282
218.501236	720.810730	764.203430	746.073669	58.219330
218.877609	726.680603	767.175598	754.841309	69.541199
219.253983	730.990234	767.621399	761.528625	83.367241
219.630295	736.414307	768.513000	763.386169	84.027916
220.006592	731.361633	767.398499	757.218994	71.752525
220.382889	731.956055	768.884521	754.023987	59.758595
220.759140	731.733154	773.416992	752.166504	49.019836
221.135391	734.853943	773.714172	753.132385	47.036373
221.511581	736.414307	767.844299	747.856934	36.406712
221.887772	730.247131	762.197266	755.138611	77.907280
222.263931	726.680664	763.014648	757.516296	84.867195
222.640060	721.627991	770.073425	760.265442	79.754578
223.016159	727.572266	773.194153	758.407898	67.589561
223.392212	730.692932	771.336609	753.652527	56.489956
223.768265	734.631042	769.701843	754.172607	55.720325
224.144302	739.014832	768.736023	752.463684	45.250046
224.520294	741.615417	766.358215	755.435730	55.855900
224.896286	742.284180	761.380066	761.008484	98.054123
225.272217	745.553528	764.500671	755.881592	54.509872
225.648148	747.782715	772.302490	756.327393	34.848106
226.024048	749.045715	777.726563	750.903320	6.476813
226.399902	737.008728	783.819397	754.915710	38.254063
226.775772	730.618652	778.395325	752.017883	44.790123
227.151581	730.395752	777.206482	756.327393	55.396786
227.527374	737.974609	774.160095	759.076599	58.316170
227.903137	734.556702	774.308594	758.630676	60.560574
228.278870	734.631042	769.850403	755.807312	60.126785
228.654572	725.120300	775.348877	758.036438	65.532692
229.030273	726.754883	784.562500	755.733093	50.128704
229.405930	725.343201	791.175354	761.602966	55.079113
229.781555	723.708496	789.169189	760.414063	56.072681
230.157181	725.194580	786.494324	765.615234	65.939354
230.532761	719.250305	783.968018	755.584412	56.142445
230.908325	726.606262	784.413818	758.853699	55.784119
231.283859	726.903503	780.104248	761.974426	65.921867
231.659332	735.745544	779.807068	767.175598	71.332199
232.034821	736.340027	779.509949	760.265442	55.421494
232.410263	733.739319	776.686340	761.380066	64.360100
232.785690	726.829163	774.828796	760.116882	69.349945
233.161087	726.086182	766.729797	750.011658	58.866505
233.536469	732.996338	774.977356	747.856873	35.398224
233.911804	735.745544	775.200256	743.695862	20.150490
234.287140	735.671204	777.726563	752.315002	39.575928
234.662430	741.764099	776.166260	748.079773	18.358364
235.037704	744.884766	777.355164	755.064270	31.350107
235.412933	741.689758	781.218811	759.968262	46.240681
235.788162	731.658936	779.212646	755.881531	50.937340
236.163345	727.275085	773.937195	751.720642	52.388451
236.538513	732.253357	771.708069	748.376953	40.866085
236.913635	726.234802	775.348938	749.863037	48.108826
237.288742	724.748718	783.447937	753.429504	48.860592
237.663834	727.052185	782.333313	760.191162	59.946274
238.038879	726.754883	773.639893	769.181824	90.491486
238.413910	728.538147	772.822571	766.432617	85.570656
238.788910	724.228516	773.937195	764.426453	80.867043
239.163879	733.962219	775.720398	767.918640	81.316818
239.538834	739.757996	768.290222	770.444885	107.551682
239.913757	741.689758	763.906311	768.587402	121.070290
240.288651	742.209900	771.485168	762.420227	69.035500
240.663528	741.615417	779.881348	759.076599	45.631145
241.038361	743.324402	791.918396	759.225281	32.721901
241.413177	738.569031	783.670715	756.550293	39.868271
241.787979	733.962219	784.785339	756.178772	43.713478
242.162735	732.401917	779.435547	766.135315	71.721870
242.537476	730.395813	794.370422	772.079590	65.156754
242.912170	735.522644	798.382751	776.240540	64.775414
243.286865	725.863281	805.664368	772.599670	58.566105
243.661514	721.256531	802.097839	769.404724	59.558899
244.036148	714.346375	802.543701	762.048645	54.085846
244.410751	722.148193	802.915222	755.435791	41.214340
244.785339	732.922058	803.286804	754.469910	30.623079
245.159882	738.940613	799.051453	759.596680	34.363297
245.534378	739.014893	794.816162	757.887695	33.821457
245.908890	738.271790	791.175293	755.807312	33.146240
246.283356	728.909668	791.621155	748.376953	31.042614
246.657791	726.086182	802.915222	745.107666	24.758196
247.032196	719.696106	809.379456	744.736145	27.920500
247.406586	720.141907	821.565186	751.126221	30.549509
247.780960	720.290588	824.165833	756.253113	34.620880
248.155289	720.662109	822.977051	763.460449	41.829998
248.529602	725.863281	819.856262	766.358215	43.082935
248.903870	730.024231	817.998718	766.358215	41.300591
249.278122	731.733215	818.593079	758.927979	31.308779
249.652344	732.996399	816.141113	754.618469	26.005346
250.026550	735.671204	813.391846	759.968262	31.262039
250.400711	734.631042	809.453857	767.770020	44.289936
250.774857	731.956116	810.642639	768.364441	46.270088
251.148987	725.640381	808.785156	765.095154	47.453098
251.523071	727.572266	813.317627	762.866028	41.161133
251.897125	734.556702	819.336121	764.129211	34.881710
252.271164	731.956055	817.255676	758.705078	31.358900
252.645187	731.138733	816.438293	760.488342	34.407692
253.019165	726.160461	814.283508	761.677185	40.303558
253.393112	731.287415	820.376282	772.228210	45.955009
253.767044	731.881836	827.509460	765.020813	34.654190
254.140930	734.779602	828.178162	764.797913	32.140015
254.514801	736.488586	824.314392	764.872253	32.318142
254.888657	736.934387	819.410400	766.506836	35.855816
255.262466	728.686829	816.141113	763.831970	40.186871
255.636276	725.640381	817.998596	758.630859	35.720135
256.010010	728.538269	823.274170	762.791748	36.156811
256.383759	731.658936	823.571350	761.528625	32.497993
256.757446	734.259521	830.704407	761.231445	27.966152
257.131134	727.720886	831.596008	757.590576	28.755384
257.504791	730.395752	839.472168	763.980652	30.790249
257.878418	726.680664	837.391602	763.534729	33.288548
258.252014	729.875671	847.793945	767.101318	31.569023
258.625580	730.024231	853.441101	768.438782	31.125851
258.999115	732.476257	867.112732	767.249817	25.827742
259.372650	729.206848	873.874329	769.256104	27.683661
259.746124	730.618652	899.434387	760.636902	17.781666
260.119598	733.293518	920.313477	766.135315	17.560583
260.493042	744.141785	938.963562	751.423340	3.737547
260.866425	742.209900	934.208191	755.658691	7.004641
261.239838	745.033386	931.236023	750.011719	2.673610
261.613159	737.751709	921.056580	762.643127	13.579246
261.986511	734.482422	913.031799	767.992981	18.768230
262.359802	727.200745	894.530457	775.720398	28.996437
262.733063	726.234863	885.316895	775.868958	31.200315
263.106293	726.309082	884.202332	772.896912	29.505903
263.479523	727.349365	886.877258	761.528625	21.425257
263.852692	730.618652	888.214661	755.955872	16.077324
264.225861	737.751709	881.378906	752.537903	10.294843
264.598969	737.677429	885.688477	763.906250	17.720854
264.972076	739.460693	890.963928	766.655457	17.949955
265.345154	734.259521	902.109375	765.838135	18.813608
265.718201	740.649475	903.966980	765.838074	15.423085
266.091217	739.460693	907.310547	770.890686	18.725063
266.464203	740.500977	910.356934	775.423157	20.559879
266.837158	735.894104	922.393982	770.593445	18.605556
267.210114	729.281250	927.818054	765.912415	18.450565
267.583038	724.377258	939.706543	765.689453	19.185591
267.955902	720.736328	941.118164	765.912415	20.499006
268.328766	718.507324	947.285339	768.290100	21.760298
268.701569	718.358704	949.737366	772.228210	23.281969
269.074371	719.696106	959.396790	769.553284	20.799765
269.447144	723.782776	972.102539	768.067200	17.833628
269.819885	730.915833	981.984863	762.568848	12.607296
270.192596	730.544373	980.572998	767.324219	14.710254
270.565277	736.414246	988.671936	769.627625	13.166449
270.937927	731.213074	1000.114563	773.416992	15.694937
271.310577	733.813660	1036.225708	769.553284	11.818188
271.683136	730.618652	1056.881836	766.209656	10.908679
272.055725	733.813660	1076.869263	760.562683	7.797285
272.428284	732.253235	1078.652588	756.476013	6.992732
272.800812	730.841553	1081.476074	757.441895	7.586344
273.173279	730.841553	1078.801147	760.414063	8.498835
273.545776	729.727051	1080.435913	770.667786	11.673710
273.918152	729.281189	1073.674316	772.599670	12.578207
274.290558	734.185120	1064.609375	772.302490	11.535888
274.662964	736.934387	1053.835449	768.290100	9.894480
275.035278	744.587585	1049.451660	763.088928	6.068718
275.407593	741.912659	1057.996460	765.318054	7.404807
275.779907	741.912659	1066.689819	766.804016	7.664134
276.152161	737.231628	1078.206665	772.451111	10.329050
276.524384	731.064453	1083.556519	768.513000	10.623940
276.896606	723.857117	1100.126099	765.243713	10.999205
277.268799	726.754883	1112.534546	765.540955	10.053945
277.640930	732.401855	1129.401245	767.992981	8.965033
278.013031	739.089172	1128.658325	772.153870	8.487504
278.385162	734.779602	1133.413696	771.262268	9.151918
278.757233	733.590820	1134.082397	766.581238	8.237481
279.129272	725.789001	1130.292969	769.627625	10.837625
279.501282	725.120300	1138.614868	769.999084	10.853537
279.873230	722.965515	1154.515747	774.680176	11.983462
280.245178	731.287354	1174.948975	763.757629	7.318703
280.617126	725.417480	1190.701172	763.757629	8.240166
280.988983	727.052063	1203.555542	764.649353	7.890244
281.360870	727.126465	1232.459351	767.175598	7.925297
281.732697	730.470032	1257.424927	767.472839	7.022007
282.104492	727.349426	1283.579590	765.763855	6.906211
282.476288	723.931458	1308.099487	766.581238	7.300944
282.848053	735.522644	1320.805054	763.014648	4.697220
283.219757	740.575195	1323.554321	764.946533	4.180482
283.591461	739.460632	1315.158203	765.243713	4.478581
283.963135	732.179016	1321.771118	766.581238	5.834919
284.334747	728.389587	1330.910278	768.067200	6.585269
284.706360	730.172852	1347.628418	765.095154	5.655840
285.077942	727.275085	1367.095703	774.085693	7.316208
285.449524	728.315247	1379.430054	775.200256	7.200728
285.821014	727.943787	1393.770508	779.955627	7.811618
286.192535	731.807434	1411.157227	765.020813	4.888995
286.563995	736.785828	1446.228149	753.206726	2.314621
286.935425	734.185242	1468.518921	746.370850	1.659410
287.306824	731.064453	1487.763306	753.206726	2.926167
287.678223	727.423645	1474.166016	759.002258	4.228850
288.049561	732.476257	1462.351929	767.249817	4.764313
288.420898	727.869446	1436.048828	766.581238	5.466382
288.792145	728.761047	1424.977661	767.249939	5.528293
289.163452	727.200867	1432.333618	769.999084	6.069526
289.534668	726.160461	1451.280884	775.497498	6.803978
289.905914	724.525879	1481.150391	776.834961	6.913480
290.277039	730.692932	1508.493774	774.531555	5.636227
290.648193	736.860046	1546.759766	768.736023	3.935793
291.019318	737.900330	1590.747070	772.971191	4.112212
291.390381	725.566101	1606.796387	777.206543	5.860039
291.761475	721.776672	1592.010132	777.280762	6.378069
292.132507	717.244141	1570.908203	775.051697	6.771698
292.503510	720.885010	1553.892944	768.215881	5.681923
292.874481	723.634216	1554.858765	773.268494	5.971224
293.245422	722.668274	1553.149902	778.543945	6.728105
293.616364	719.176025	1580.493164	775.868958	6.582120
293.987213	721.107910	1610.511353	776.240540	6.198833
294.358093	726.383362	1655.093140	764.054871	4.056327
294.728943	737.900391	1706.064819	767.844299	3.092854
295.099731	736.785828	1745.519653	768.364441	3.130520
295.470490	737.305969	1773.977539	779.881348	4.106930
295.841248	737.900391	1790.175415	780.921570	4.088397
296.211975	741.318298	1813.952148	783.150696	3.899970
296.582642	743.695984	1860.911621	788.574768	4.017021
296.953308	733.813721	1909.134155	790.803894	4.848905
297.323883	729.058289	1959.362793	789.689270	4.928128
297.694519	724.748718	1980.687500	788.054688	5.040530
298.065063	736.340027	1975.040527	781.293152	3.629056
298.435608	737.974609	1957.133667	779.361145	3.394679
298.806122	743.250183	1912.180542	765.466614	1.900578
299.176575	743.621643	1859.128418	768.513000	2.231395
299.547028	744.290344	1809.345703	767.027039	2.134790
299.917450	743.027161	1784.825562	770.221985	2.610373
300.287872	731.361755	1781.184937	768.884521	3.574198
300.658234	728.166687	1773.457397	765.986755	3.618139
301.028564	727.795166	1778.212524	769.924805	4.010752
301.398865	728.983948	1789.581055	777.577942	4.581758
301.769135	733.293518	1800.280640	778.246765	4.213101
302.139374	730.098450	1802.658325	773.862854	4.080369
302.509583	732.550476	1801.395142	769.924805	3.496703
302.879791	733.888000	1799.463257	771.708008	3.549258
303.249939	735.596985	1789.952515	773.194092	3.565885
303.620087	744.364685	1769.593750	777.949463	3.275832
303.990173	746.073547	1766.547241	770.890808	2.431935
304.360260	743.027161	1755.179077	769.701904	2.635449
304.730286	734.036621	1775.537720	765.020813	2.974955
305.100281	730.395752	1785.271484	772.822571	4.021973
305.470276	733.442139	1799.983398	772.599670	3.671450
305.840179	732.476257	1797.977173	773.937195	3.891215
306.210144	735.819824	1801.098022	773.194153	3.508410
306.579987	736.191406	1817.221680	781.664551	4.206463
306.949890	738.049011	1827.995605	774.159973	3.313095
307.319702	735.448303	1842.410156	775.720398	3.638074
307.689484	729.578430	1860.391479	773.045471	3.843875
308.059265	734.853943	1888.254883	786.345703	4.464342
308.429016	730.321472	1928.526978	781.144531	4.241598
308.798737	739.609314	1979.721802	777.206482	3.031754
309.168396	730.693054	2026.681030	775.646179	3.468637
309.538055	731.287415	2058.854248	782.110413	3.828281
309.907684	720.439209	2069.330811	786.568604	4.902499
310.277313	724.525879	2089.912598	785.825500	4.489543
310.646851	725.417480	2111.906250	781.144531	4.019293
311.016388	733.367859	2136.203125	781.516052	3.432206
311.385895	734.779541	2137.466064	778.915466	3.146528
311.755371	737.677429	2142.444580	778.766846	2.924999
312.124817	729.801270	2142.816162	775.348938	3.223439
312.494232	724.748779	2144.450928	769.999023	3.187305
312.863617	729.875671	2126.246826	771.633789	2.990474
313.232971	739.014893	2119.187744	772.302429	2.411838
313.602295	740.946777	2107.002197	775.497498	2.529233
313.971619	735.225403	2114.209717	770.742004	2.575562
314.340820	729.429871	2124.909180	768.958801	2.832642
314.710083	725.937561	2148.463135	770.445007	3.128762
315.079285	727.943665	2180.487549	776.537781	3.345449
315.448486	732.179016	2205.379150	779.212708	3.192621
315.817596	727.275085	2204.561523	783.150696	3.782314
316.186707	723.931396	2166.221436	779.509949	3.853493
316.555786	722.148132	2112.797607	780.252930	4.178249
316.924866	739.386414	2075.200439	782.333313	3.215036
317.293884	740.278015	2064.352295	787.980408	3.602698
317.662872	742.284180	2065.912842	789.392273	3.559011
318.031830	732.179016	2081.070801	787.757507	4.120307
318.400757	737.603088	2088.426758	784.636719	3.481848
318.769684	736.117004	2105.293213	784.636719	3.543716
319.138550	740.649475	2125.354736	788.574707	3.461042
319.507416	739.609192	2139.695313	795.559265	3.996188
319.876190	738.940613	2156.636475	801.429138	4.407753
320.244995	739.757874	2152.401367	797.491028	4.086888
320.613770	739.460693	2139.398193	808.190735	4.909508
320.982483	739.460693	2119.262451	803.212402	4.620353
321.351166	739.014832	2095.485352	808.190735	5.099699
321.719818	733.144958	2091.993164	801.354797	5.019681
322.088440	731.361633	2093.850586	809.082275	5.704313
322.457062	727.423645	2121.491455	813.168945	6.150726
322.825623	733.144958	2147.720215	815.918152	5.851452
323.194183	732.179016	2188.958008	815.398132	5.712542
323.562653	735.819885	2233.614258	822.233887	5.769417
323.931183	721.479492	2286.517578	842.444275	7.729191
324.299591	722.519714	2340.238525	855.818787	8.239941
324.668060	713.231750	2393.662109	862.134460	8.860987
325.036407	722.445313	2434.528564	861.317139	8.111278
