Jaz Data File
++++++++++++++++++++++++++++++++++++
Date: Fri Jun 04 16:39:12 2021
User: jaz
Dark Spectrum Present: Yes
Reference Spectrum Present: Yes
Processed Spectrum Present: Yes
Spectrometers: JAZA3586
Integration Time (usec): 24500 (JAZA3586)
Spectra Averaged: 10 (JAZA3586)
Boxcar Smoothing: 1 (JAZA3586)
Correct for Electrical Dark: No (JAZA3586)
Strobe/Lamp Enabled: Yes (JAZA3586)
Correct for Detector Non-linearity: No (JAZA3586)
Correct for Stray Light: No (JAZA3586)
Number of Pixels in Processed Spectrum: 2048
>>>>>Begin Processed Spectral Data<<<<<
W	D	R	S	P
191.335022	0.000000	0.000000	0.000000	0.000000
191.713211	234.722305	237.694412	231.601563	-105.001030
192.091385	468.330078	472.342407	469.964691	40.739754
192.469528	711.002747	710.185364	707.213318	463.605133
192.847641	720.513489	715.535156	716.426819	82.089134
193.225739	732.476257	730.321472	726.234863	289.652740
193.603790	736.860046	741.615417	734.185242	-56.248074
193.981842	742.209778	745.999268	736.785828	-143.131409
194.359863	749.714417	747.931152	743.695984	337.495300
194.737854	753.281006	751.571960	748.748535	265.204803
195.115829	747.039551	756.253113	753.132385	66.128983
195.493774	744.364685	757.144714	752.909424	66.860085
195.871704	749.268555	759.448059	757.962097	85.402412
196.249603	759.002258	755.435791	768.215820	-258.338623
196.627457	760.636963	752.909485	767.770020	-92.307693
197.005310	755.881531	750.606140	763.757629	-149.298874
197.383133	752.166443	758.853760	761.528564	139.998169
197.760910	752.389343	761.008484	760.339661	92.240257
198.138687	755.287109	762.420227	764.500671	129.165985
198.516449	752.240723	760.859863	754.692688	28.447910
198.894180	751.274841	756.847473	747.039551	-76.001617
199.271866	746.296570	753.726746	743.993164	-31.000690
199.649536	747.931152	745.553467	749.937317	-84.374680
200.027191	745.330566	743.918762	754.469788	-647.343384
200.404816	742.061218	748.822815	750.606140	126.374321
200.782410	740.872375	757.516296	747.782532	41.517597
201.159988	741.615479	771.856628	753.132324	38.083359
201.537537	743.101563	774.977356	757.590515	45.454407
201.915070	746.668030	783.076355	759.596680	35.510147
202.292557	738.271790	776.314758	760.934143	59.570412
202.670029	741.838379	782.556213	764.575012	55.839497
203.047485	737.751770	773.491272	766.061035	79.210014
203.424911	742.655762	778.766846	763.237549	56.995762
203.802292	737.677429	770.742126	756.253113	56.179810
204.179688	736.042786	779.286926	755.658691	45.360840
204.557037	742.358459	782.481934	756.698914	35.740810
204.934357	742.358459	784.562439	758.482178	38.204262
205.311661	743.324463	778.692566	760.116882	47.478992
205.688934	732.030457	775.125977	752.166321	46.723801
206.066177	735.225403	778.692566	749.119934	31.965582
206.443390	736.340027	784.785339	749.863037	27.913971
206.820587	742.284180	788.723389	754.989929	27.359961
207.197769	739.312195	785.676941	760.859863	46.474251
207.574921	737.305908	784.488098	759.745300	47.559029
207.952042	735.225403	780.773010	757.664856	49.265930
208.329147	738.271790	777.726563	756.921875	47.269527
208.706223	746.816589	772.748291	765.912415	73.638924
209.083267	751.720642	772.971191	776.909180	118.531227
209.460297	741.764099	775.125977	768.067200	78.841789
209.837280	732.476257	776.983459	752.017822	43.906525
210.214264	727.052063	778.915344	738.569092	22.206518
210.591217	727.275085	770.890686	742.507141	34.923412
210.968124	726.309082	769.999023	741.095398	33.843754
211.345016	731.064453	772.525391	744.959045	33.512489
211.721893	742.878601	779.509827	743.472961	1.622551
212.098724	746.965271	777.800842	748.451233	4.818986
212.475555	745.181946	776.983582	744.587585	-1.868962
212.852356	737.528809	783.670715	744.290344	14.653785
213.229126	732.476257	784.933899	737.825989	10.198193
213.605865	729.504089	784.413818	736.265625	12.313911
213.982590	729.355469	781.144531	736.562927	13.916951
214.359283	726.531921	778.320984	744.587585	34.863857
214.735931	722.593933	775.794678	744.141785	40.502914
215.112579	726.383484	769.924805	735.225403	20.306961
215.489197	734.482422	771.708069	732.104675	-6.387388
215.865799	739.163513	761.231262	738.271912	-4.040292
216.242355	740.872375	756.921692	747.856934	43.519348
216.618896	738.197571	758.927979	748.079773	47.670082
216.995407	736.860046	766.655457	746.222168	31.421354
217.371902	734.036560	771.410828	743.918884	26.441519
217.748367	731.138855	767.472839	746.742432	42.944855
218.124802	726.754883	769.404602	744.587646	41.812149
218.501236	720.810730	764.203430	748.154114	63.013786
218.877609	726.680603	767.175598	748.005554	52.660709
219.253983	730.990234	767.621399	747.782532	45.841560
219.630295	736.414307	768.513000	746.445129	31.249941
220.006592	731.361633	767.398499	748.079834	46.391941
220.382889	731.956055	768.884521	753.652527	58.752701
220.759140	731.733154	773.416992	751.423401	47.237125
221.135391	734.853943	773.714172	748.154114	34.225662
221.511581	736.414307	767.844299	748.376953	38.061245
221.887772	730.247131	762.197266	752.166443	68.604759
222.263931	726.680664	763.014648	749.119934	61.758350
222.640060	721.627991	770.073425	750.308838	59.202374
223.016159	727.572266	773.194153	757.441956	65.472282
223.392212	730.692932	771.336609	766.506836	88.116791
223.768265	734.631042	769.701843	769.701904	100.000175
224.144302	739.014832	768.736023	767.918640	97.249832
224.520294	741.615417	766.358215	762.717468	85.285629
224.896286	742.284180	761.380066	752.909424	55.641533
225.272217	745.553528	764.500671	753.132385	40.000000
225.648148	747.782715	772.302490	752.909485	20.908716
226.024048	749.045715	777.726563	761.751526	44.300682
226.399902	737.008728	783.819397	754.618469	37.619076
226.775772	730.618652	778.395325	757.962097	57.231789
227.151581	730.395752	777.206482	750.160217	42.222084
227.527374	737.974609	774.160095	753.280945	42.299656
227.903137	734.556702	774.308594	745.924988	28.598101
228.278870	734.631042	769.850403	747.633972	36.919834
228.654572	725.120300	775.348877	745.702148	40.976372
229.030273	726.754883	784.562500	751.126221	42.159389
229.405930	725.343201	791.175354	748.525635	35.214455
229.781555	723.708496	789.169189	751.423401	42.338238
230.157181	725.194580	786.494324	743.027161	29.090792
230.532761	719.250305	783.968018	744.884766	39.609653
230.908325	726.606262	784.413818	741.541199	25.835613
231.283859	726.903503	780.104248	748.971436	41.480495
231.659332	735.745544	779.807068	752.612305	38.280022
232.034821	736.340027	779.509949	751.051941	34.079082
232.410263	733.739319	776.686340	750.308899	38.581440
232.785690	726.829163	774.828796	750.754700	49.845249
233.161087	726.086182	766.729797	756.624573	75.136993
233.536469	732.996338	774.977356	767.844299	83.008850
233.911804	735.745544	775.200256	765.838196	76.271378
234.287140	735.671204	777.726563	765.243713	70.318054
234.662430	741.764099	776.166260	759.745300	52.267651
235.037704	744.884766	777.355164	762.123047	53.089222
235.412933	741.689758	781.218811	760.265442	46.992485
235.788162	731.658936	779.212646	752.983704	44.843540
236.163345	727.275085	773.937195	749.714539	48.089237
236.538513	732.253357	771.708069	750.754700	46.892605
236.913635	726.234802	775.348938	756.624573	61.875813
237.288742	724.748718	783.447937	755.807312	52.911427
237.663834	727.052185	782.333313	753.726807	48.252674
238.038879	726.754883	773.639893	742.655701	33.914501
238.413910	728.538147	772.822571	740.946777	28.020304
238.788910	724.228516	773.937195	740.278015	32.287117
239.163879	733.962219	775.720398	753.206726	46.085598
239.538834	739.757996	768.290222	755.510071	55.208012
239.913757	741.689758	763.906311	759.522400	80.267365
240.288651	742.209900	771.485168	752.612305	35.533081
240.663528	741.615417	779.881348	759.299500	46.213646
241.038361	743.324402	791.918396	759.150879	32.568794
241.413177	738.569031	783.670715	763.683411	55.683907
241.787979	733.962219	784.785339	765.169495	61.403698
242.162735	732.401917	779.435547	761.305725	61.453491
242.537476	730.395813	794.370422	759.448181	45.412342
242.912170	735.522644	798.382751	750.829102	24.350035
243.286865	725.863281	805.664368	755.584412	37.244019
243.661514	721.256531	802.097839	757.293274	44.577141
244.036148	714.346375	802.543701	752.612244	43.386654
244.410751	722.148193	802.915222	755.658691	41.490318
244.785339	732.922058	803.286804	743.770264	15.417103
245.159882	738.940613	799.051453	749.491516	17.552414
245.534378	739.014893	794.816162	739.980774	1.730931
245.908890	738.271790	791.175293	745.330566	13.342740
246.283356	728.909668	791.621155	748.228333	30.805624
246.657791	726.086182	802.915222	748.748535	29.497120
247.032196	719.696106	809.379456	753.206726	37.365486
247.406586	720.141907	821.565186	753.652405	33.040245
247.780960	720.290588	824.165833	758.110596	36.409065
248.155289	720.662109	822.977051	755.807312	34.350021
248.529602	725.863281	819.856262	750.011658	25.691681
248.903870	730.024231	817.998718	756.996094	30.658733
249.278122	731.733215	818.593079	758.110657	30.367813
249.652344	732.996399	816.141113	762.717468	35.746193
250.026550	735.671204	813.391846	749.640137	17.973261
250.400711	734.631042	809.453857	748.005554	17.874910
250.774857	731.956116	810.642639	741.095398	11.614799
251.148987	725.640381	808.785156	752.166443	31.903461
251.523071	727.572266	813.317627	752.315125	28.856207
251.897125	734.556702	819.336121	755.807312	25.065765
252.271164	731.956055	817.255676	756.104492	28.310135
252.645187	731.138733	816.438293	756.921814	30.226511
253.019165	726.160461	814.283508	758.036377	36.172054
253.393112	731.287415	820.376282	753.058105	24.437050
253.767044	731.881836	827.509460	753.058105	22.144510
254.140930	734.779602	828.178162	754.172668	20.763775
254.514801	736.488586	824.314392	753.875427	19.796961
254.888657	736.934387	819.410400	751.051941	17.117163
255.262466	728.686829	816.141113	743.250183	16.652534
255.636276	725.640381	817.998596	739.312012	14.802832
256.010010	728.538269	823.274170	745.924988	18.352829
256.383759	731.658936	823.571350	753.206604	23.443697
256.757446	734.259521	830.704407	758.184998	24.807407
257.131134	727.720886	831.596008	758.482117	29.613665
257.504791	730.395752	839.472168	758.556458	25.817410
257.878418	726.680664	837.391602	760.339783	30.402704
258.252014	729.875671	847.793945	762.643127	27.788277
258.625580	730.024231	853.441101	761.454285	25.466578
258.999115	732.476257	867.112732	754.098328	16.059593
259.372650	729.206848	873.874329	747.856873	12.891649
259.746124	730.618652	899.434387	752.612305	13.028200
260.119598	733.293518	920.313477	756.921875	12.634136
260.493042	744.141785	938.963562	764.054871	10.221181
260.866425	742.209900	934.208191	759.596680	9.055696
261.239838	745.033386	931.236023	763.609070	9.976058
261.613159	737.751709	921.056580	756.996094	10.498567
261.986511	734.482422	913.031799	755.584412	11.818574
262.359802	727.200745	894.530457	752.835205	15.319730
262.733063	726.234863	885.316895	757.590576	19.710405
263.106293	726.309082	884.202332	757.590576	19.811800
263.479523	727.349365	886.877258	756.327393	18.164865
263.852692	730.618652	888.214661	750.383118	12.541222
264.225861	737.751709	881.378906	752.463684	10.243168
264.598969	737.677429	885.688477	752.835205	10.240976
264.972076	739.460693	890.963928	760.859863	14.124563
265.345154	734.259521	902.109375	756.550293	13.280186
265.718201	740.649475	903.966980	754.767090	8.644276
266.091217	739.460693	907.310547	758.110657	11.111099
266.464203	740.500977	910.356934	753.058105	7.392810
266.837158	735.894104	922.393982	756.550293	11.075712
267.210114	729.281250	927.818054	743.993164	7.410170
267.583038	724.377258	939.706543	749.045715	11.456155
267.955902	720.736328	941.118164	745.627869	11.294733
268.328766	718.507324	947.285339	750.234619	13.868157
268.701569	718.358704	949.737366	757.516296	16.923597
269.074371	719.696106	959.396790	755.064209	14.755112
269.447144	723.782776	972.102539	748.897156	10.113726
269.819885	730.915833	981.984863	742.209900	4.498391
270.192596	730.544373	980.572998	745.033386	5.794942
270.565277	736.414246	988.671936	752.389343	6.332849
270.937927	731.213074	1000.114563	758.110657	10.002765
271.310577	733.813660	1036.225708	756.178711	7.395555
271.683136	730.618652	1056.881836	753.355286	6.968801
272.055725	733.813660	1076.869263	745.850769	3.508793
272.428284	732.253235	1078.652588	747.113831	4.290018
272.800812	730.841553	1081.476074	751.051941	5.763947
273.173279	730.841553	1078.801147	757.367676	7.623334
273.545776	729.727051	1080.435913	763.237549	9.555076
273.918152	729.281189	1073.674316	766.581238	10.830660
274.290558	734.185120	1064.609375	771.113586	11.176076
274.662964	736.934387	1053.835449	767.101318	9.519353
275.035278	744.587585	1049.451660	757.293274	4.167657
275.407593	741.912659	1057.996460	753.801086	3.761163
275.779907	741.912659	1066.689819	755.212891	4.095187
276.152161	737.231628	1078.206665	763.831970	7.801258
276.524384	731.064453	1083.556519	764.872253	9.591082
276.896606	723.857117	1100.126099	760.191162	9.656402
277.268799	726.754883	1112.534546	759.373840	8.455334
277.640930	732.401855	1129.401245	755.435791	5.802008
278.013031	739.089172	1128.658325	757.070374	4.615664
278.385162	734.779602	1133.413696	754.544128	4.958062
278.757233	733.590820	1134.082397	755.212891	5.398883
279.129272	725.789001	1130.292969	753.578125	6.869926
279.501282	725.120300	1138.614868	751.720642	6.433057
279.873230	722.965515	1154.515747	759.076599	8.367759
280.245178	731.287354	1174.948975	760.191162	6.514832
280.617126	725.417480	1190.701172	768.290222	9.214323
280.988983	727.052063	1203.555542	762.346008	7.406860
281.360870	727.126465	1232.459351	768.067200	8.101736
281.732697	730.470032	1257.424927	759.596741	5.527363
282.104492	727.349426	1283.579590	754.321228	4.849036
282.476288	723.931458	1308.099487	752.092102	4.820641
282.848053	735.522644	1320.805054	756.178894	3.529279
283.219757	740.575195	1323.554321	757.962097	2.982423
283.591461	739.460632	1315.158203	763.386169	4.155921
283.963135	732.179016	1321.771118	758.259277	4.423441
284.334747	728.389587	1330.910278	761.305664	5.463062
284.706360	730.172852	1347.628418	757.070496	4.356207
285.077942	727.275085	1367.095703	762.271667	5.469749
285.449524	728.315247	1379.430054	765.912415	5.774276
285.821014	727.943787	1393.770508	766.358337	5.769452
286.192535	731.807434	1411.157227	761.751465	4.407749
286.563995	736.785828	1446.228149	762.197266	3.581889
286.935425	734.185242	1468.518921	758.779358	3.349174
287.306824	731.064453	1487.763306	759.745361	3.790267
287.678223	727.423645	1474.166016	755.510071	3.761194
288.049561	732.476257	1462.351929	752.612305	2.758832
288.420898	727.869446	1436.048828	751.943604	3.399443
288.792145	728.761047	1424.977661	750.457520	3.116339
289.163452	727.200867	1432.333618	756.327393	4.130644
289.534668	726.160461	1451.280884	758.927979	4.518907
289.905914	724.525879	1481.150391	756.401672	4.212894
290.277039	730.692932	1508.493774	763.609070	4.231949
290.648193	736.860046	1546.759766	768.884583	3.954136
291.019318	737.900330	1590.747070	775.051697	4.356160
291.390381	725.566101	1606.796387	768.067200	4.822927
291.761475	721.776672	1592.010132	765.318054	5.003414
292.132507	717.244141	1570.908203	765.392334	5.640181
292.503510	720.885010	1553.892944	757.962097	4.450988
292.874481	723.634216	1554.858765	758.779358	4.228117
293.245422	722.668274	1553.149902	764.352051	5.019229
293.616364	719.176025	1580.493164	768.438660	5.719454
293.987213	721.107910	1610.511353	768.438721	5.321636
294.358093	726.383362	1655.093140	761.157043	3.744300
294.728943	737.900391	1706.064819	754.767029	1.742125
295.099731	736.785828	1745.519653	752.537903	1.561569
295.470490	737.305969	1773.977539	748.005432	1.032098
295.841248	737.900391	1790.175415	756.773254	1.793530
296.211975	741.318298	1813.952148	756.773193	1.440836
296.582642	743.695984	1860.911621	761.974365	1.636066
296.953308	733.813721	1909.134155	768.958801	2.990255
297.323883	729.058289	1959.362793	762.123047	2.687526
297.694519	724.748718	1980.687500	761.379944	2.916641
298.065063	736.340027	1975.040527	755.287170	1.529598
298.435608	737.974609	1957.133667	761.974426	1.968555
298.806122	743.250183	1912.180542	763.163269	1.703530
299.176575	743.621643	1859.128418	766.655457	2.064874
299.547028	744.290344	1809.345703	771.039307	2.511509
299.917450	743.027161	1784.825562	771.782410	2.760155
300.287872	731.361755	1781.184937	765.020813	3.206164
300.658234	728.166687	1773.457397	760.414063	3.085015
301.028564	727.795166	1778.212524	751.126160	2.221117
301.398865	728.983948	1789.581055	752.760925	2.241848
301.769135	733.293518	1800.280640	745.702148	1.162960
302.139374	730.098450	1802.658325	757.664856	2.570151
302.509583	732.550476	1801.395142	756.178894	2.210650
302.879791	733.888000	1799.463257	762.866028	2.719473
303.249939	735.596985	1789.952515	753.801086	1.726562
303.620087	744.364685	1769.593750	758.259277	1.355267
303.990173	746.073547	1766.547241	753.132385	0.691722
304.360260	743.027161	1755.179077	756.476013	1.328739
304.730286	734.036621	1775.537720	753.132324	1.833479
305.100281	730.395752	1785.271484	757.070374	2.528698
305.470276	733.442139	1799.983398	755.212830	2.041242
305.840179	732.476257	1797.977173	758.779358	2.468613
306.210144	735.819824	1801.098022	761.157043	2.378460
306.579987	736.191406	1817.221680	766.581238	2.811192
306.949890	738.049011	1827.995605	767.324219	2.685930
307.319702	735.448303	1842.410156	775.720398	3.638074
307.689484	729.578430	1860.391479	775.868958	4.093562
308.059265	734.853943	1888.254883	775.200195	3.498025
308.429016	730.321472	1928.526978	758.927979	2.387446
308.798737	739.609314	1979.721802	756.996094	1.402032
309.168396	730.693054	2026.681030	756.104492	1.960777
309.538055	731.287415	2058.854248	759.448059	2.121222
309.907684	720.439209	2069.330811	755.955872	2.633026
310.277313	724.525879	2089.912598	755.138611	2.242056
310.646851	725.417480	2111.906250	755.361511	2.159702
311.016388	733.367859	2136.203125	758.482178	1.790254
311.385895	734.779541	2137.466064	759.745300	1.779853
311.755371	737.677429	2142.444580	764.797913	1.930604
312.124817	729.801270	2142.816162	768.290039	2.723876
312.494232	724.748779	2144.450928	768.513000	3.082634
312.863617	729.875671	2126.246826	768.810242	2.788268
313.232971	739.014893	2119.187744	765.689514	1.932701
313.602295	740.946777	2107.002197	762.866028	1.604565
313.971619	735.225403	2114.209717	762.643066	1.988250
314.340820	729.429871	2124.909180	760.488281	2.225645
314.710083	725.937561	2148.463135	761.825745	2.522850
315.079285	727.943665	2180.487549	760.636963	2.250762
315.448486	732.179016	2205.379150	765.540955	2.264590
315.817596	727.275085	2204.561523	766.804016	2.675780
316.186707	723.931396	2166.221436	765.466614	2.879810
316.555786	722.148132	2112.797607	759.448181	2.682204
316.924866	739.386414	2075.200439	757.739075	1.373893
317.293884	740.278015	2064.352295	752.983704	0.959590
317.662872	742.284180	2065.912842	755.064209	0.965530
318.031830	732.179016	2081.070801	753.058105	1.547870
318.400757	737.603088	2088.426758	756.921875	1.430149
318.769684	736.117004	2105.293213	758.630798	1.644331
319.138550	740.649475	2125.354736	763.980530	1.684911
319.507416	739.609192	2139.695313	770.519226	2.207724
319.876190	738.940613	2156.636475	776.314758	2.636260
320.244995	739.757874	2152.401367	781.664612	2.966547
320.613770	739.460693	2139.398193	770.593567	2.223876
320.982483	739.460693	2119.262451	767.472839	2.030157
321.351166	739.014832	2095.485352	757.887695	1.391321
321.719818	733.144958	2091.993164	770.073425	2.717630
322.088440	731.361633	2093.850586	773.119812	3.064845
322.457062	727.423645	2121.491455	776.612061	3.528409
322.825623	733.144958	2147.720215	777.577942	3.141083
323.194183	732.179016	2188.958008	774.234314	2.886869
323.562653	735.819885	2233.614258	767.918518	2.143060
323.931183	721.479492	2286.517578	761.157043	2.535245
324.299591	722.519714	2340.238525	759.150879	2.264372
324.668060	713.231750	2393.662109	767.175598	3.210121
325.036407	722.445313	2434.528564	769.033203	2.721123
