Jaz Data File
++++++++++++++++++++++++++++++++++++
Date: Fri Jun 04 16:22:26 2021
User: jaz
Dark Spectrum Present: Yes
Reference Spectrum Present: Yes
Processed Spectrum Present: Yes
Spectrometers: JAZA3586
Integration Time (usec): 63200 (JAZA3586)
Spectra Averaged: 10 (JAZA3586)
Boxcar Smoothing: 1 (JAZA3586)
Correct for Electrical Dark: No (JAZA3586)
Strobe/Lamp Enabled: Yes (JAZA3586)
Correct for Detector Non-linearity: No (JAZA3586)
Correct for Stray Light: No (JAZA3586)
Number of Pixels in Processed Spectrum: 2048
>>>>>Begin Processed Spectral Data<<<<<
W	D	R	S	P
191.335022	0.000000	0.000000	0.000000	0.000000
191.713211	294.907501	299.365692	297.805298	64.999382
192.091385	595.536316	602.223572	592.712830	-42.221897
192.469528	903.743958	907.384827	896.833801	-189.794144
192.847641	913.849121	916.003967	905.973083	-365.503479
193.225739	927.520813	925.886230	917.118469	636.391479
193.603790	931.830383	930.715881	917.415710	1293.373535
193.981842	939.557861	937.997559	922.022461	1123.846069
194.359863	939.037659	936.957336	930.344421	417.879364
194.737854	938.814758	947.062500	940.746826	23.425417
195.115829	942.381348	947.656921	948.251404	111.268585
195.493774	944.016113	948.325500	949.663086	131.038879
195.871704	935.768555	944.536194	947.359680	132.203491
196.249603	942.752930	949.217224	943.718933	14.943679
196.627457	936.808777	949.143005	945.056335	66.867241
197.005310	951.074890	950.554688	947.731201	642.766602
197.383133	945.056335	939.780823	946.542297	-28.167156
197.760910	951.966492	949.217285	941.861267	367.568756
198.138687	951.223450	946.988220	938.294739	305.265900
198.516449	948.325623	953.675476	935.768372	-234.721405
198.894180	941.266846	942.084167	927.075012	-1736.382690
199.271866	937.031555	934.208069	929.378418	271.052734
199.649536	939.483643	929.898621	923.359924	168.217850
200.027191	942.009949	933.762390	924.623047	210.812714
200.404816	938.369080	947.211182	923.285645	-170.586533
200.782410	937.477356	960.734192	938.517578	4.472759
201.159988	935.322571	981.687561	951.520691	34.936100
201.537537	938.889160	989.563660	952.932434	27.712704
201.915070	927.446594	994.393372	945.204895	26.525997
202.292557	928.041016	987.185974	942.381348	24.246077
202.670029	927.446533	981.538879	942.975769	28.708750
203.047485	929.155579	980.721619	942.827209	26.512857
203.424911	916.152588	976.040527	946.765320	51.116688
203.802292	912.660339	973.662842	952.709473	65.651627
204.179688	913.997803	958.876648	955.978821	93.542999
204.557037	928.115295	957.762146	955.458679	92.230316
204.934357	929.824280	966.455505	952.858093	62.880268
205.311661	924.697327	972.251160	962.814697	80.156250
205.688934	922.022461	974.703125	959.471008	71.085945
206.066177	912.065857	969.278992	956.127441	77.013054
206.443390	918.381592	970.542175	945.576477	52.136848
206.820587	919.421875	966.826965	948.177063	60.658440
207.197769	927.892395	966.158386	952.486633	64.271790
207.574921	926.331970	966.158264	954.715637	71.268661
207.952042	925.217468	973.811462	949.514465	50.000000
208.329147	922.839783	976.709229	948.548523	47.724159
208.706223	937.105896	1005.835938	961.179993	35.027035
209.083267	942.827148	999.445862	963.780579	37.007957
209.460297	936.585754	997.142578	969.724792	54.723869
209.837280	921.873840	965.935364	954.046936	73.018570
210.214264	914.815125	960.288391	957.316223	93.463921
210.591217	918.827454	956.647644	946.542297	73.280548
210.968124	922.245422	967.272766	952.040710	66.171539
211.345016	928.783997	972.994141	953.898254	56.806549
211.721893	930.121521	971.210876	952.040771	53.345325
212.098724	931.013123	966.529785	943.421692	34.937317
212.475555	926.554932	967.347168	949.142883	55.373165
212.852356	926.703552	967.644348	949.514404	55.716679
213.229126	921.130859	962.666016	958.579407	90.161087
213.605865	909.985352	958.430847	947.656921	77.760727
213.982590	909.316650	962.145996	949.588806	76.230652
214.359283	912.065918	962.591797	943.273010	61.764572
214.735931	909.168152	960.065491	933.465088	47.737144
215.112579	910.282715	958.876648	934.059570	48.929680
215.489197	913.180420	964.820801	935.768372	43.740871
215.865799	922.616882	974.777405	944.684814	42.307728
216.242355	924.697449	976.635010	948.399902	45.636440
216.618896	918.976074	966.009766	949.737488	65.402931
216.995407	921.130859	958.653748	947.954163	71.485176
217.371902	916.598389	958.653748	949.291565	77.738434
217.748367	918.530273	962.368835	947.211121	65.423790
218.124802	920.387878	964.375000	952.412292	72.804070
218.501236	926.777832	959.099426	949.960266	71.724289
218.877609	919.942078	957.613464	955.087158	93.293831
219.253983	909.465332	955.384338	958.802246	107.443336
219.630295	911.768616	953.303894	961.179932	118.962288
220.006592	919.941895	948.622864	955.607239	124.351952
220.382889	929.229797	943.421631	950.331726	148.690643
220.759140	918.158691	952.040833	951.594910	98.683899
221.135391	910.728455	954.641418	950.703308	91.032013
221.511581	907.310547	964.820984	948.697083	71.963524
221.887772	911.917236	961.700195	947.062500	70.596977
222.263931	915.855286	968.238770	951.297668	67.659462
222.640060	917.118469	966.381165	959.248108	85.520370
223.016159	923.954346	965.563904	963.854919	95.892807
223.392212	923.880066	957.762024	964.375000	119.517693
223.768265	917.489990	959.768250	955.384460	89.631104
224.144302	911.099915	961.477234	946.245117	69.763939
224.520294	916.003906	972.696960	945.427795	51.900341
224.896286	922.765442	975.743347	943.644531	39.410938
225.272217	923.879944	975.817566	940.895325	32.761185
225.648148	925.143066	978.938293	938.369141	24.585962
226.024048	924.920227	982.802063	947.359680	38.767693
226.399902	923.136963	989.860840	958.876648	53.563560
226.775772	918.976074	982.504883	962.963318	69.239838
227.151581	920.462158	983.545105	958.356506	60.070667
227.527374	924.028625	981.241699	948.325623	42.467560
227.903137	918.753174	984.733948	943.050110	36.824268
228.278870	925.886230	977.526550	940.523865	28.345360
228.654572	925.886230	973.737122	943.644531	37.111744
229.030273	938.294739	966.306824	941.489746	11.405818
229.405930	929.749939	962.666016	943.793152	42.663689
229.781555	929.155579	957.910645	944.833435	54.522068
230.157181	924.697449	962.963318	948.994324	63.494900
230.532761	922.022461	962.740417	946.393738	59.853882
230.908325	915.706726	964.820801	950.257507	70.348022
231.283859	914.889343	968.387390	947.433899	60.833164
231.659332	920.239197	961.328613	949.885986	72.151886
232.034821	925.514648	959.471008	944.684814	56.455303
232.410263	920.090576	949.663086	944.238953	81.658188
232.785690	915.706726	956.573242	944.981934	71.636169
233.161087	908.425110	960.288391	944.907715	70.343803
233.536469	915.038025	960.734192	951.446350	79.674789
233.911804	914.666504	964.300781	955.756042	82.784599
234.287140	921.130859	960.882813	959.471008	96.448463
234.662430	928.338196	968.610352	958.802246	75.645439
235.037704	932.499207	972.399719	958.653625	65.549080
235.412933	928.486816	976.189148	964.523621	75.545166
235.788162	919.124573	974.554504	963.854980	80.697212
236.163345	916.747009	969.130371	964.077820	90.354668
236.538513	921.725281	970.542175	959.322449	77.016716
236.913635	917.415710	971.433777	960.214111	79.229790
237.288742	924.325928	970.764954	963.483398	84.320183
237.663834	930.047180	970.393494	959.173767	72.191444
238.038879	930.790222	971.730957	955.755859	60.979942
238.413910	920.536438	971.210754	953.378174	64.809433
238.788910	907.236267	969.799072	948.548523	66.033257
239.163879	911.397156	970.467773	950.108887	65.534668
239.538834	919.719055	966.083984	947.359680	59.615372
239.913757	926.629333	970.765076	953.824036	61.616055
240.288651	926.554993	976.709290	950.777588	48.296150
240.663528	922.394043	991.198303	952.486572	43.736435
241.038361	920.313538	985.476868	956.424622	55.416264
241.413177	922.914124	977.006409	961.551514	71.428650
241.787979	916.375488	972.548279	953.675476	66.402237
242.162735	918.976074	977.898132	945.279297	44.640705
242.537476	913.626282	983.396484	941.489746	39.936050
242.912170	923.360046	989.117859	949.217285	39.321926
243.286865	912.288879	996.771057	955.978821	51.714981
243.661514	915.855286	1001.154968	959.248230	50.871166
244.036148	912.363098	998.777161	958.133606	52.966503
244.410751	926.703552	992.164307	951.223450	37.457401
244.785339	928.709717	984.659668	948.028503	34.528694
245.159882	931.830383	984.362488	944.684814	24.469667
245.534378	928.635437	991.495422	948.474182	31.560213
245.908890	919.421875	990.306641	951.149109	44.758888
246.283356	913.774902	988.449036	946.393738	43.681572
246.657791	909.688171	989.786621	947.879883	47.680962
247.032196	915.929626	1002.640930	941.638367	29.648661
247.406586	918.827454	1004.275574	946.542297	32.434704
247.780960	924.920227	998.628601	951.297668	35.786221
248.155289	923.657043	996.845276	953.303894	40.507675
248.529602	926.109070	1001.674988	956.276062	39.921425
248.903870	921.502380	1001.377747	948.325623	33.581371
249.278122	929.601379	997.588379	953.452576	35.081997
249.652344	927.520935	1003.383972	950.406067	30.166380
250.026550	925.440430	1000.337463	949.663086	32.341274
250.400711	919.570496	1003.978333	948.102722	33.802818
250.774857	922.393982	998.257141	945.353516	30.264404
251.148987	920.907898	1003.681213	945.650696	29.892241
251.523071	916.895508	999.297302	949.068665	39.044243
251.897125	921.353760	997.662598	955.310059	44.498512
252.271164	919.273254	1001.229187	960.065430	49.773304
252.645187	919.273254	1001.972168	961.923035	51.572357
253.019165	916.524109	1004.795715	963.409180	53.114555
253.393112	929.601379	1009.848328	964.672302	43.703747
253.767044	925.143250	1011.111511	962.517395	43.474354
254.140930	918.381592	1011.260010	963.483398	48.560051
254.514801	912.140137	1000.783386	961.254395	55.406654
254.888657	915.409485	998.034180	957.019104	50.359787
255.262466	913.180420	994.839172	959.768372	57.052002
255.636276	914.963684	1000.263184	966.009705	59.843281
256.010010	921.650940	1007.247620	979.755676	67.881996
256.383759	929.304138	1010.739929	975.446045	56.660477
256.757446	927.149353	1008.808044	972.548279	55.595951
257.131134	920.685059	1006.207458	960.214050	46.220631
257.504791	912.363098	1009.551086	960.288391	49.311951
257.878418	907.979309	1010.888489	959.842590	50.397137
258.252014	908.276550	1013.712097	966.158264	54.897724
258.625580	914.517883	1020.622253	965.935364	48.459343
258.999115	915.112305	1032.139160	968.833191	45.904751
259.372650	917.118469	1051.606445	966.232605	36.519352
259.746124	912.214539	1058.219360	956.498962	30.330795
260.119598	911.545715	1068.696167	949.737366	24.302603
260.493042	912.957520	1069.810547	949.217285	23.117033
260.866425	915.929688	1073.674316	956.276062	25.577019
261.239838	918.010071	1076.274902	959.991150	26.525843
261.613159	918.455872	1070.925171	951.817810	21.881086
261.986511	923.136963	1064.089355	954.195496	22.034767
262.359802	927.000732	1051.755005	946.616638	15.723635
262.733063	926.257629	1049.600220	948.697083	18.192785
263.106293	920.684875	1044.547729	946.839539	21.115824
263.479523	920.759277	1039.643677	949.365906	24.062559
263.852692	922.393860	1038.454956	953.601135	26.888662
264.225861	923.582764	1040.981079	954.269836	26.139278
264.598969	923.137024	1043.284546	954.567078	26.159552
264.972076	915.855286	1044.324829	952.858093	28.802786
265.345154	913.403381	1043.953247	947.210999	25.896324
265.718201	910.728516	1044.027588	950.480408	29.821583
266.091217	914.592224	1046.033569	959.693909	34.313164
266.464203	918.604553	1044.993408	968.907471	39.800121
266.837158	923.731445	1050.046021	972.399719	38.529419
267.210114	922.691223	1049.228638	966.678284	34.762100
267.583038	920.982239	1058.368042	964.746399	31.854937
267.955902	920.685059	1067.581421	965.786682	30.703022
268.328766	925.366028	1071.073730	960.065430	23.814390
268.701569	922.914063	1073.971558	964.300720	27.397951
269.074371	915.632385	1073.377075	966.455505	32.218594
269.447144	911.917297	1083.779541	971.805359	34.846550
269.819885	918.010071	1097.228271	968.684570	28.275309
270.192596	922.393982	1098.119995	969.576172	26.849861
270.565277	918.827454	1105.252930	979.235596	32.403374
270.937927	914.443604	1103.098267	969.056152	28.948423
271.310577	917.861511	1107.407837	964.449402	24.578630
271.683136	927.223633	1109.413940	956.053162	15.823854
272.055725	924.325867	1120.707886	962.888977	19.636784
272.428284	927.520813	1138.986450	956.721863	13.808887
272.800812	915.483826	1149.388794	956.127441	17.376123
273.173279	923.137024	1144.336304	959.322449	16.358744
273.545776	913.477600	1138.837891	964.597900	22.683809
273.918152	922.616882	1124.794556	963.780579	20.360159
274.290558	918.753113	1122.565552	962.145996	21.290596
274.662964	920.907959	1127.692383	960.734314	19.259842
275.035278	916.375488	1125.834717	962.591797	22.064585
275.407593	914.443604	1134.602417	961.105774	21.194777
275.779907	916.747009	1131.036011	959.545349	19.972252
276.152161	913.329102	1150.503296	956.647461	18.264364
276.524384	914.963684	1155.927368	955.904480	16.990442
276.896606	906.418945	1154.515747	959.842468	21.533339
277.268799	911.991638	1154.812866	959.025208	19.369629
277.640930	904.412781	1153.921265	957.390564	21.232859
278.013031	917.118469	1164.546631	955.904480	15.675666
278.385162	920.685059	1157.785156	959.471008	16.358471
278.757233	932.201904	1160.162720	962.740295	13.396334
279.129272	932.944885	1162.986206	955.012878	9.593056
279.501282	928.561035	1173.611450	949.291565	8.459700
279.873230	917.415710	1175.171753	954.418457	14.355724
280.245178	914.740784	1183.196533	961.179993	17.298645
280.617126	917.935852	1190.849731	961.700134	16.035931
280.988983	922.765442	1201.252075	956.127441	11.979749
281.360870	919.050293	1207.270630	955.904602	12.786853
281.732697	915.706726	1211.357300	956.201721	13.696911
282.104492	921.799561	1225.920654	952.486633	10.090412
282.476288	918.307312	1232.310669	953.452454	11.192600
282.848053	919.347595	1243.678833	952.560852	10.240536
283.219757	918.455994	1244.644897	961.774414	13.280164
283.591461	920.982239	1249.028809	966.678406	13.929780
283.963135	921.353699	1251.332275	970.022034	14.748938
284.334747	916.969788	1251.109375	970.616455	16.055166
284.706360	917.341370	1263.220581	972.771179	16.025770
285.077942	918.976013	1273.920166	973.439941	15.344365
285.449524	924.920227	1276.297852	968.015869	12.264766
285.821014	926.257751	1281.721924	961.848816	10.012560
286.192535	922.839844	1295.467896	965.341003	11.405787
286.563995	925.514648	1322.514038	974.480225	12.333918
286.935425	930.195618	1333.362305	977.972473	11.850398
287.306824	934.133728	1326.452148	971.953918	9.640177
287.678223	929.229797	1323.108521	961.997375	8.319205
288.049561	920.462097	1325.114746	959.025208	9.529929
288.420898	919.867676	1326.898071	957.019043	9.127419
288.792145	918.455994	1329.052734	959.768311	10.061531
289.163452	920.239197	1319.170410	958.505066	9.592097
289.534668	917.564270	1326.154907	961.031433	10.638316
289.905914	913.031921	1327.120850	958.802307	11.053274
290.277039	916.969910	1343.021606	962.145996	10.603428
290.648193	913.329102	1352.309448	970.393555	12.999318
291.019318	923.657166	1375.269043	977.377930	11.895339
291.390381	922.245422	1384.185547	975.669006	11.565045
291.761475	931.533203	1389.981079	968.461670	8.055107
292.132507	927.446533	1380.544556	967.570068	8.855376
292.503510	930.270020	1378.018188	968.981750	8.645871
292.874481	929.824219	1379.355835	979.384216	11.024808
293.245422	926.852051	1376.012085	979.458496	11.712183
293.616364	924.623047	1384.928345	975.297546	11.008889
293.987213	916.895569	1402.166626	974.926025	11.958360
294.358093	921.799622	1429.287109	969.056152	9.311861
294.728943	916.003906	1442.290039	967.792969	9.840476
295.099731	922.914063	1456.704712	960.362793	7.015621
295.470490	916.746887	1479.441406	963.260559	8.266238
295.841248	919.050293	1507.379272	969.650574	8.600677
296.211975	916.301208	1521.571289	968.461670	8.617717
296.582642	916.821228	1531.824829	970.764954	8.771286
296.953308	918.158691	1545.645142	975.817566	9.188864
297.323883	917.489929	1557.533569	976.411926	9.205935
297.694519	917.787170	1564.889648	971.805237	8.347684
298.065063	917.489990	1567.787476	960.362732	6.592789
298.435608	920.090576	1563.700806	968.981750	7.596395
298.806122	924.771667	1552.406738	974.926025	7.991006
299.176575	931.236023	1521.571289	979.384216	8.156076
299.547028	928.263916	1508.568237	970.690735	7.311133
299.917450	925.737610	1490.066772	972.771240	8.334432
300.287872	920.164856	1496.308228	969.947754	8.640714
300.658234	922.839783	1491.255737	974.257324	9.045760
301.028564	920.016357	1489.620972	966.678406	8.192007
301.398865	924.400208	1488.877930	966.083984	7.384486
301.769135	924.846008	1482.859375	959.842529	6.271628
302.139374	924.771667	1492.072876	967.941589	7.609700
302.509583	922.022461	1484.345581	969.650574	8.469883
302.879791	921.056458	1492.964478	976.040527	9.614145
303.249939	924.251526	1488.506348	974.480225	8.901775
303.620087	920.833679	1493.558960	977.229309	9.846890
303.990173	915.112366	1483.750977	974.628723	10.466464
304.360260	913.923523	1484.568359	971.433838	10.078128
304.730286	919.941956	1484.939819	970.764954	8.995255
305.100281	922.393860	1490.735352	975.520325	9.347631
305.470276	925.737610	1493.038940	972.771179	8.290756
305.840179	920.907898	1499.726074	974.182922	9.204103
306.210144	926.926453	1514.586548	967.198486	6.852947
306.579987	921.725281	1520.456543	972.325439	8.451230
306.949890	920.907959	1529.967407	966.901306	7.551537
307.319702	919.273254	1530.338867	963.111877	7.174127
307.689484	922.319641	1532.122070	964.077820	6.847821
308.059265	921.502258	1535.911499	969.650452	7.836502
308.429016	918.233093	1553.818481	972.994141	8.615845
308.798737	920.239197	1580.716187	970.244934	7.571155
309.168396	920.313538	1611.774780	968.833191	7.016973
309.538055	922.245361	1639.638062	972.919861	7.063704
309.907684	919.124695	1655.241699	972.251160	7.217123
310.277313	927.520813	1662.894897	971.582336	5.991715
310.646851	929.824219	1666.312866	973.737122	5.962469
311.016388	931.533203	1681.321899	981.241699	6.629667
311.385895	923.211243	1682.510742	982.133301	7.760055
311.755371	919.867676	1677.161133	978.492493	7.741361
312.124817	921.799561	1680.058960	980.201477	7.702103
312.494232	923.954346	1688.677856	986.145691	8.132527
312.863617	921.725281	1686.151489	993.130188	9.340981
313.232971	919.124695	1677.161011	988.523376	9.155060
313.602295	919.198914	1671.216797	984.882568	8.734321
313.971619	922.245361	1685.334351	988.894836	8.734168
314.340820	923.731445	1685.854492	992.387207	9.008488
314.710083	918.753113	1694.919312	992.387207	9.486897
315.079285	915.929688	1698.411621	993.575989	9.923079
315.448486	915.038025	1711.563110	990.083740	9.421638
315.817596	924.028625	1707.253784	990.752441	8.519111
316.186707	925.811829	1702.944214	981.761780	7.199539
316.555786	922.468262	1688.232056	985.328369	8.208812
316.924866	912.511719	1680.207397	992.164246	10.375534
317.293884	906.121643	1662.300415	998.777161	12.253123
317.662872	904.932861	1663.340820	999.445862	12.462027
318.031830	907.682068	1669.953613	999.891663	12.096686
318.400757	908.796570	1679.835938	999.222961	11.727857
318.769684	914.517883	1680.875977	1001.154968	11.305039
319.138550	925.589050	1686.746094	996.845276	9.361567
319.507416	924.697327	1695.885254	1001.972229	10.020243
319.876190	921.725281	1703.390015	1007.619141	10.988581
320.244995	915.483826	1710.077148	1012.374573	12.193753
320.613770	922.022461	1708.591187	1020.696472	12.544868
320.982483	926.109131	1700.714844	1021.810974	12.354911
321.351166	923.434265	1684.516968	1022.776917	13.052806
321.719818	926.629211	1675.526367	1020.770813	12.570698
322.088440	928.338196	1688.826538	1024.263062	12.613588
322.457062	926.852112	1705.693237	1037.191650	14.167143
322.825623	921.725281	1726.795288	1045.587891	15.385322
323.194183	908.870911	1749.457520	1048.559937	16.618040
323.562653	911.545837	1773.680298	1049.302856	15.978601
323.931183	913.106140	1797.234375	1052.200806	15.732409
