Jaz Data File
++++++++++++++++++++++++++++++++++++
Date: Fri Jun 04 16:48:05 2021
User: jaz
Dark Spectrum Present: Yes
Reference Spectrum Present: Yes
Processed Spectrum Present: Yes
Spectrometers: JAZA3586
Integration Time (usec): 24900 (JAZA3586)
Spectra Averaged: 10 (JAZA3586)
Boxcar Smoothing: 1 (JAZA3586)
Correct for Electrical Dark: No (JAZA3586)
Strobe/Lamp Enabled: Yes (JAZA3586)
Correct for Detector Non-linearity: No (JAZA3586)
Correct for Stray Light: No (JAZA3586)
Number of Pixels in Processed Spectrum: 2048
>>>>>Begin Processed Spectral Data<<<<<
W	D	R	S	P
191.335022	0.000000	0.000000	0.000000	0.000000
191.713211	231.155762	234.127869	232.121689	32.499744
192.091385	464.763519	467.438385	473.382660	322.227051
192.469528	701.492004	705.652893	718.581604	410.719940
192.847641	713.603333	712.860291	727.720886	-1899.967163
193.225739	723.857117	731.064453	730.247070	88.659019
193.603790	734.482422	738.271790	730.098572	-115.688171
193.981842	733.739441	737.900330	737.751709	96.428154
194.359863	736.117004	734.185120	743.695984	-392.310120
194.737854	737.974609	738.123230	748.971436	7399.260742
195.115829	740.500916	744.736145	750.160339	228.073212
195.493774	744.141785	746.147949	749.491516	266.664642
195.871704	743.472961	746.593750	750.085938	211.900803
196.249603	746.445068	755.361511	750.606018	46.666027
196.627457	747.188171	758.556458	755.064270	69.281319
197.005310	747.188171	764.203430	758.630798	67.249207
197.383133	750.606140	760.339783	764.129211	138.931244
197.760910	754.246887	757.293274	761.157043	226.831223
198.138687	752.909485	756.327393	756.847473	115.216347
198.516449	751.943542	754.989990	750.160217	-58.537857
198.894180	745.330566	752.612305	742.284180	-41.835983
199.271866	748.154053	751.572083	747.039551	-32.606560
199.649536	744.736145	746.816650	748.599915	185.713028
200.027191	745.553467	751.051941	753.058105	136.485840
200.404816	740.500916	744.364685	743.770264	84.615509
200.782410	742.432800	759.448059	745.627747	18.776947
201.159988	746.370850	763.311829	755.658691	54.824707
201.537537	747.931152	776.314880	768.067200	70.942223
201.915070	745.999268	771.559509	766.135437	78.779259
202.292557	737.008606	778.320984	760.934143	57.913727
202.670029	728.835388	777.726563	755.584412	54.711353
203.047485	720.885010	782.333313	757.739197	59.975922
203.424911	718.358704	770.667786	759.002258	77.698853
203.802292	723.188416	771.633789	760.934143	77.914001
204.179688	728.538147	771.930969	761.528625	76.027504
204.557037	728.835388	782.556335	758.110657	54.495071
204.934357	735.374023	782.704895	745.850769	22.135120
205.311661	737.603088	775.571777	748.228455	27.984549
205.688934	741.912659	776.091980	752.315125	30.434969
206.066177	736.191406	769.999084	759.968262	70.329750
206.443390	740.278015	775.051758	754.841309	41.880142
206.820587	744.216064	767.101318	752.092224	34.415871
207.197769	743.101501	768.810242	750.754700	29.768858
207.574921	737.751709	772.302429	752.240723	41.935490
207.952042	727.052185	774.159973	748.822815	46.214504
208.329147	726.309082	773.045471	751.943542	54.849041
208.706223	732.179016	770.073425	767.621399	93.529320
209.083267	734.036621	768.364441	767.992920	98.917725
209.460297	734.333801	767.992920	760.191101	76.821083
209.837280	723.485596	767.398499	750.011719	60.406216
210.214264	726.457703	769.479004	752.389343	60.276283
210.591217	725.640381	767.101318	760.414063	83.870949
210.968124	722.668274	765.912415	758.556458	82.989700
211.345016	723.188416	764.054871	758.482178	86.363647
211.721893	720.662109	770.370605	754.098328	67.264595
212.098724	717.095520	765.986755	748.154114	63.525894
212.475555	702.383606	762.048767	747.856934	76.214203
212.852356	708.773682	761.974426	748.154114	74.022331
213.229126	711.448547	765.838135	748.005554	67.213242
213.605865	725.417480	768.661621	743.101563	40.893593
213.982590	719.027527	761.602844	750.234558	73.298409
214.359283	722.445313	756.104492	750.829041	84.326859
214.735931	720.141907	760.785583	748.674255	70.201202
215.112579	718.284363	756.104492	746.519470	74.656296
215.489197	719.324646	761.825867	742.284180	54.020882
215.865799	714.049133	760.934143	748.897156	74.326576
216.242355	717.541321	764.203430	745.627747	60.191074
216.618896	722.816895	761.751465	753.801086	79.580154
216.995407	731.733215	762.866028	753.949707	71.360374
217.371902	732.104675	764.277832	757.144714	77.828979
217.748367	733.219238	768.736023	754.692688	60.460003
218.124802	732.104675	763.683350	749.194336	54.117725
218.501236	736.934387	768.067200	750.234619	42.720947
218.877609	731.510315	760.265442	747.039551	54.005104
219.253983	727.572266	757.516174	752.463623	83.126617
219.630295	726.309082	750.829041	748.079773	88.787636
220.006592	721.479431	749.342957	747.931152	94.933144
220.382889	720.142029	754.395508	745.999329	75.488098
220.759140	717.095520	761.751465	746.668152	66.223282
221.135391	717.764343	770.816406	745.033447	51.400646
221.511581	717.689941	775.497498	742.507141	42.930717
221.887772	714.420654	770.890808	746.073669	56.052647
222.263931	711.522888	761.454285	746.816650	70.684509
222.640060	704.984192	756.253113	755.138489	97.825928
223.016159	706.470276	760.785583	746.965271	74.555397
223.392212	709.145203	769.627625	749.640137	66.953232
223.768265	723.188416	774.457275	752.017883	56.231926
224.144302	723.485596	775.200378	758.185059	67.097763
224.520294	731.881836	767.918640	760.116882	78.350586
224.896286	728.389648	763.757751	753.281006	70.377983
225.272217	728.315247	766.135315	747.708313	51.277184
225.648148	724.525818	769.701843	744.884766	45.065823
226.024048	722.593933	772.599609	740.500916	35.809898
226.399902	718.953125	775.943359	748.228455	51.369030
226.775772	723.857178	779.064026	748.154114	44.010727
227.151581	729.206970	777.726563	755.584290	54.364265
227.527374	734.036621	776.983582	758.259216	56.401188
227.903137	730.395752	775.794739	757.367615	59.410717
228.278870	730.990234	779.807129	751.646301	42.313358
228.654572	736.042786	772.302490	745.924988	27.253952
229.030273	733.590759	765.912415	745.999329	38.390884
229.405930	723.782776	759.893982	750.457520	73.868324
229.781555	724.674500	762.048767	747.559631	61.232323
230.157181	724.302917	765.838135	753.875488	71.198784
230.532761	731.658875	771.262207	752.760925	53.283524
230.908325	720.885010	776.983582	753.578186	58.278091
231.283859	720.736389	776.091980	747.188171	47.785206
231.659332	713.603333	773.862793	746.965271	55.363819
232.034821	725.120300	770.816406	749.788757	53.983719
232.410263	722.668274	767.770020	746.668030	53.212475
232.785690	729.875671	768.438721	745.256287	39.884335
233.161087	724.228577	761.157043	737.231628	35.211460
233.536469	720.736328	767.472839	737.231628	35.294247
233.911804	716.501160	763.163269	737.528809	45.063648
234.287140	719.621826	766.878418	744.736145	53.144585
234.662430	724.377258	766.655457	750.011658	60.632668
235.037704	723.485596	770.890625	752.240723	60.658390
235.412933	719.324646	778.023743	745.181946	44.050591
235.788162	718.210144	773.268372	745.479187	49.527645
236.163345	720.142029	767.027039	747.559631	58.478397
236.538513	718.953125	764.054932	751.572083	72.322952
236.913635	721.256531	774.903076	745.553528	45.290890
237.288742	723.931458	778.172363	746.668030	41.917759
237.663834	724.748779	776.017578	749.268616	47.826042
238.038879	730.024231	771.410889	759.596680	71.454063
238.413910	727.646545	774.754456	752.389343	52.523659
238.788910	733.145020	777.800842	749.194336	35.940029
239.163879	730.692932	778.692444	734.185120	7.275465
239.538834	735.002502	776.166199	736.191345	2.888086
239.913757	728.092346	775.200256	740.946716	27.287073
240.288651	729.578430	777.057861	750.977539	45.070271
240.663528	723.337097	777.726563	749.863037	48.770363
241.038361	729.578430	778.915466	750.160339	41.716953
241.413177	728.984070	784.190918	748.079773	34.589375
241.787979	732.327637	787.608887	742.952942	19.220449
242.162735	732.699219	789.243469	734.408142	3.022276
242.537476	731.881775	785.156921	735.968445	7.670875
242.912170	731.807556	787.237305	748.971436	30.965105
243.286865	727.869446	788.054688	756.104492	46.913570
243.661514	726.532043	789.689270	752.463684	41.058865
244.036148	730.024231	789.317810	746.147949	27.193026
244.410751	730.767273	788.128906	748.154053	30.310818
244.785339	733.516418	786.419983	754.841309	40.308987
245.159882	724.823059	798.977234	755.807312	41.783558
245.534378	722.222412	799.348694	751.423401	37.861267
245.908890	715.758057	795.782166	756.104492	50.417850
246.283356	716.724060	782.407654	760.116882	66.063408
246.657791	721.553711	782.779114	765.838135	72.330147
247.032196	730.024231	790.357971	759.596680	49.014778
247.406586	734.928223	803.509583	758.853699	34.886265
247.780960	726.383362	808.710754	760.934082	41.967464
248.155289	717.987122	818.444519	761.231384	43.047363
248.529602	717.689941	815.620911	755.881531	38.998482
248.903870	725.268860	823.794250	754.692688	29.864208
249.278122	727.869446	818.370178	754.172668	29.064098
249.652344	716.501160	814.655029	756.253113	40.499630
250.026550	713.008972	800.983337	747.336731	39.020184
250.400711	707.659180	798.679932	741.615479	37.306107
250.774857	721.033630	795.187744	742.729980	29.258457
251.148987	722.445374	795.633484	745.033386	30.862953
251.523071	726.383362	799.274414	756.921814	41.896023
251.897125	723.262695	804.475586	755.881592	40.164680
252.271164	727.200745	806.704651	756.178711	36.448483
252.645187	728.909668	806.778992	746.147949	22.137447
253.019165	729.578430	810.122620	745.999329	20.387440
253.393112	724.600098	812.277344	751.943542	31.186478
253.767044	723.336975	809.899719	755.732910	37.424801
254.140930	725.045959	806.704590	752.463623	33.575954
254.514801	726.309082	810.122559	754.395508	33.510632
254.888657	735.374023	814.060608	757.516174	28.139677
255.262466	731.361633	814.952209	762.271545	36.977749
255.636276	734.408142	813.911926	762.197266	34.953209
256.010010	727.943787	813.837708	757.218994	34.082981
256.383759	733.144958	821.565186	751.869141	21.176355
256.757446	724.600159	823.645691	738.123230	13.653388
257.131134	723.114075	827.360840	738.791931	15.039178
257.504791	724.005676	835.162598	741.763977	15.975884
257.878418	723.857117	840.140808	743.175781	16.613392
258.252014	718.804504	848.388428	748.302673	22.763756
258.625580	711.448547	856.561768	758.184998	32.206886
258.999115	716.724060	875.731750	770.370605	33.738335
259.372650	717.318542	890.666748	766.358215	28.289692
259.746124	723.708496	902.480896	763.460449	22.236069
260.119598	733.516418	926.257751	762.122986	14.841948
260.493042	737.900208	938.666321	755.881592	8.956384
260.866425	730.172852	952.783752	752.835144	10.180226
261.239838	711.448547	941.266907	748.748535	16.230204
261.613159	713.528992	925.886230	752.909485	18.544455
261.986511	715.386536	899.285828	744.661926	15.919251
262.359802	725.491699	881.824707	742.581482	10.931653
262.733063	731.584534	879.446960	741.318298	6.582987
263.106293	734.408142	883.087830	746.147949	7.896039
263.479523	732.104736	890.740967	756.178772	15.175623
263.852692	721.702332	889.997986	758.630798	21.942616
264.225861	724.005676	890.815247	758.630798	20.757275
264.598969	728.612488	893.044434	748.079773	11.839114
264.972076	734.482422	900.325989	744.884766	6.272383
265.345154	734.333801	894.604736	747.485352	8.205824
265.718201	729.281189	896.016541	745.702148	9.848517
266.091217	732.699158	898.691406	751.051941	11.056410
266.464203	733.144958	918.976074	752.537903	10.435790
266.837158	735.671204	926.109131	757.367615	11.392904
267.210114	726.011780	929.155579	761.974365	17.703018
267.583038	720.959290	928.263977	758.184998	17.957003
267.955902	718.953125	932.350586	761.082825	19.742363
268.328766	715.015137	941.787048	754.692688	17.496677
268.701569	712.414551	941.341125	757.887756	19.863665
269.074371	713.751953	946.839600	750.903320	15.938797
269.447144	720.884949	951.594971	746.890930	11.272151
269.819885	722.445313	966.529785	748.451233	10.654475
270.192596	725.863281	979.384094	756.327393	12.016415
270.565277	721.627991	996.622375	761.751465	14.590652
270.937927	723.039795	1007.544861	755.510071	11.412899
271.310577	710.854065	1030.801636	749.268616	12.006515
271.683136	714.494934	1047.891235	750.531738	10.808999
272.055725	711.299988	1081.550415	752.612244	11.157923
272.428284	717.392761	1092.695801	760.859863	11.581868
272.800812	719.250305	1101.389160	761.305664	11.005256
273.173279	723.931396	1073.228516	764.203430	11.529449
273.545776	728.389587	1071.445190	760.265442	9.291746
273.918152	724.302917	1064.906616	759.671082	10.383964
274.290558	725.268860	1075.606079	758.259277	9.416760
274.662964	724.302917	1056.213135	753.429626	8.775478
275.035278	729.801270	1054.578491	755.807312	8.007348
275.407593	725.714661	1056.064575	761.082764	10.706255
275.779907	725.863281	1070.850708	762.123047	10.510460
276.152161	723.411316	1079.395630	757.070374	9.455208
276.524384	726.977844	1103.098145	749.491516	5.985764
276.896606	722.891113	1111.717285	753.726807	7.930457
277.268799	719.919128	1122.639771	753.652527	8.376377
277.640930	721.776672	1119.370483	755.584412	8.503085
278.013031	724.971680	1133.488037	754.915710	7.329947
278.385162	726.309082	1127.246582	759.745300	8.339509
278.757233	725.789001	1133.710938	761.528625	8.761388
279.129272	726.829163	1127.618042	757.813477	7.730832
279.501282	723.559875	1138.020386	760.339661	8.874135
279.873230	729.058289	1142.850098	756.921814	6.733706
280.245178	722.668274	1156.670532	765.838074	9.946907
280.617126	728.166687	1174.205933	761.900085	7.562877
280.988983	714.420593	1199.617432	764.054871	10.229720
281.360870	717.615662	1234.762695	762.048767	8.591968
281.732697	718.953125	1270.947876	755.807312	6.676547
282.104492	728.538269	1296.731079	752.463684	4.210792
282.476288	728.389465	1313.449097	743.398743	2.565427
282.848053	724.748718	1322.662598	746.370850	3.616262
283.219757	717.318420	1323.480103	747.113831	4.915423
283.591461	719.324707	1321.250977	753.355286	5.653613
283.963135	723.262695	1319.318970	757.664856	5.771630
284.334747	723.114075	1329.349976	763.757629	6.704247
284.706360	723.188293	1350.154663	763.832031	6.482603
285.077942	724.971619	1370.588013	759.522400	5.351596
285.449524	731.881836	1402.315063	754.618469	3.391335
285.821014	732.030457	1420.519409	763.311829	4.543482
286.192535	727.646545	1451.355103	764.575012	5.102671
286.563995	726.383484	1465.472656	769.256042	5.800729
286.935425	722.965515	1486.871704	759.968262	4.843886
287.306824	719.770508	1484.791382	756.550293	4.807684
287.678223	726.680664	1477.806763	759.373840	4.352555
288.049561	733.739441	1457.076294	758.184998	3.379554
288.420898	730.024231	1444.667847	761.825745	4.449982
288.792145	724.748718	1441.770020	753.801086	4.051814
289.163452	721.107910	1448.457153	754.246887	4.556130
289.534668	726.011902	1472.605591	754.246887	3.781841
289.905914	726.680603	1497.348267	753.875427	3.528736
290.277039	725.045898	1535.094238	754.098328	3.586506
290.648193	731.584656	1572.914429	750.457520	2.243218
291.019318	732.699158	1598.028687	751.126221	2.129485
291.390381	730.544373	1617.570313	749.863098	2.177921
291.761475	727.126465	1609.471313	756.401672	3.317887
292.132507	714.123474	1606.127808	756.550293	4.756347
292.503510	712.265930	1582.573730	759.076660	5.378641
292.874481	714.346375	1570.239380	769.256042	6.415483
293.245422	715.386536	1574.326050	772.674011	6.669559
293.616364	723.485596	1596.022461	764.277771	4.675123
293.987213	713.380432	1635.254395	756.773254	4.707023
294.358093	716.724060	1671.291138	756.624573	4.179959
294.728943	715.163635	1716.913086	764.426331	4.917666
295.099731	720.216309	1765.358398	761.751465	3.974116
295.470490	720.736328	1793.147827	765.095032	4.136351
295.841248	720.885010	1824.354858	765.243713	4.019929
296.211975	731.287354	1840.106934	767.695740	3.283527
296.582642	735.076843	1885.803101	766.878418	2.763609
296.953308	736.860107	1931.127808	769.033203	2.693960
297.323883	734.853943	1979.498657	764.797913	2.405825
297.694519	733.070618	2011.597656	762.940369	2.336263
298.065063	733.070618	2009.739868	764.649353	2.473525
298.435608	727.497986	1988.563843	767.398499	3.164031
298.806122	726.977844	1931.573608	761.677246	2.880585
299.176575	730.692871	1875.029175	761.008484	2.649187
299.547028	733.962219	1836.837524	761.157043	2.465811
299.917450	734.928223	1825.692261	762.643127	2.540871
300.287872	726.160461	1823.165894	760.711243	3.149554
300.658234	728.240967	1817.295898	761.454285	3.049738
301.028564	732.847717	1812.317749	763.832031	2.870327
301.398865	737.825989	1815.586914	764.723572	2.495691
301.769135	729.504089	1809.791382	761.082825	2.923179
302.139374	722.148132	1811.500366	764.277832	3.867408
302.509583	712.488770	1810.088501	756.550293	4.014353
302.879791	711.076965	1809.940063	755.732971	4.063837
303.249939	707.733398	1799.983398	747.113831	3.605441
303.620087	717.838562	1789.209595	753.058105	3.287334
303.990173	721.330811	1775.760742	753.801086	3.079415
304.360260	720.290527	1785.123047	756.401672	3.391251
304.730286	722.668274	1782.819702	758.853699	3.413232
305.100281	722.519592	1798.125977	753.875488	2.915183
305.470276	735.968445	1800.875000	754.321228	1.723417
305.840179	731.361633	1820.119507	753.132385	1.999596
306.210144	726.829285	1836.540405	756.401672	2.664872
306.579987	720.290588	1852.663940	763.311829	3.799210
306.949890	712.934631	1870.868164	763.980530	4.408361
307.319702	725.491760	1886.323120	768.958801	3.744475
307.689484	729.652771	1911.660278	764.054871	2.910480
308.059265	737.825989	1935.288696	758.184998	1.700179
308.429016	727.349365	1967.907593	761.751465	2.773114
308.798737	723.411316	2000.526489	763.088867	3.106811
309.168396	723.634277	2049.046143	761.379944	2.847844
309.538055	726.011902	2088.575195	760.785583	2.552078
309.907684	725.863281	2122.308594	761.825745	2.575286
310.277313	723.039795	2149.428955	768.067200	3.156740
310.646851	727.275085	2172.017334	763.088928	2.478909
311.016388	728.686829	2186.134766	759.968262	2.146316
311.385895	724.525879	2176.549561	766.209656	2.870737
311.755371	727.646484	2178.778809	766.729797	2.693298
312.124817	731.584534	2176.772461	768.958923	2.586127
312.494232	733.144958	2178.852783	769.181824	2.492680
312.863617	733.813660	2163.398193	771.633789	2.645533
313.232971	732.104675	2149.800781	774.531555	2.992664
313.602295	741.095398	2141.627441	775.720459	2.472279
313.971619	738.271790	2153.441406	778.172363	2.819490
314.340820	737.677429	2161.763428	778.692566	2.880103
314.710083	722.742615	2190.369873	771.410828	3.316115
315.079285	716.649719	2216.450195	766.358215	3.314340
315.448486	716.278259	2255.013428	769.330383	3.447775
315.817596	725.268860	2255.756348	770.221985	2.937177
316.186707	730.544373	2227.892822	771.856628	2.759028
316.555786	729.652649	2188.066650	767.027039	2.562673
316.924866	726.309082	2146.605469	766.878357	2.856395
317.293884	714.717834	2128.772949	763.460449	3.447009
317.662872	712.488770	2122.754395	756.550293	3.124342
318.031830	715.609558	2140.735596	759.299500	3.065690
318.400757	726.309082	2149.280518	769.404602	3.028558
318.769684	727.720764	2160.277344	775.571777	3.340253
319.138550	721.999512	2182.791016	774.085754	3.565618
319.507416	717.764343	2212.511963	772.153870	3.638710
319.876190	715.163635	2229.675781	768.661621	3.532357
320.244995	722.891113	2222.022949	768.141541	3.018442
320.613770	725.640320	2197.800293	760.859863	2.392372
320.982483	736.042786	2178.630127	763.163269	1.879989
321.351166	735.745544	2161.391846	773.714172	2.663257
321.719818	732.847717	2159.682861	780.401550	3.332819
322.088440	725.491760	2157.082275	782.630554	3.991280
322.457062	721.479492	2179.893066	775.497498	3.703888
322.825623	721.256531	2214.740967	769.404724	3.223883
323.194183	714.569336	2254.790283	767.249817	3.420320
323.562653	712.340271	2298.183105	760.339661	3.026743
323.931183	710.705566	2351.978271	755.138611	2.707231
324.299591	715.981018	2422.343018	759.522461	2.551712
324.668060	720.662109	2479.556396	760.562683	2.268503
325.036407	725.268799	2521.908936	765.763855	2.253932
