Jaz Data File
++++++++++++++++++++++++++++++++++++
Date: Fri Jun 04 16:41:22 2021
User: jaz
Dark Spectrum Present: Yes
Reference Spectrum Present: Yes
Processed Spectrum Present: Yes
Spectrometers: JAZA3586
Integration Time (usec): 24400 (JAZA3586)
Spectra Averaged: 10 (JAZA3586)
Boxcar Smoothing: 1 (JAZA3586)
Correct for Electrical Dark: No (JAZA3586)
Strobe/Lamp Enabled: Yes (JAZA3586)
Correct for Detector Non-linearity: No (JAZA3586)
Correct for Stray Light: No (JAZA3586)
Number of Pixels in Processed Spectrum: 2048
>>>>>Begin Processed Spectral Data<<<<<
W	D	R	S	P
191.335022	0.000000	0.000000	0.000000	0.000000
191.713211	234.499390	230.487045	235.539612	-25.925545
192.091385	471.747955	472.490997	473.754150	269.997528
192.469528	709.665283	712.117249	709.888184	9.090683
192.847641	718.878906	723.559875	717.838562	-22.224976
193.225739	727.126465	723.336975	733.516418	-168.623062
193.603790	728.761047	731.584534	746.816650	639.479004
193.981842	720.587830	734.779602	755.732910	247.644058
194.359863	726.383362	741.689758	754.098328	181.067871
194.737854	739.237793	743.398682	754.692688	371.432556
195.115829	760.636902	748.971436	751.200500	80.891762
195.493774	758.259277	751.200500	744.067444	201.052307
195.871704	756.401672	756.847473	743.621582	-2866.771729
196.249603	754.989929	757.219055	741.169617	-619.987976
196.627457	752.909485	755.807312	745.479187	-256.409271
197.005310	756.847473	745.702148	752.389343	40.000000
197.383133	753.875427	743.695984	754.395508	-5.109126
197.760910	758.036377	750.754700	753.949707	56.122646
198.138687	750.754700	751.794922	747.856934	-278.571838
198.516449	748.302673	750.828918	748.079773	-8.823387
198.894180	752.983704	749.863098	743.993164	288.102417
199.271866	760.191162	750.531799	737.380188	236.154022
199.649536	759.596741	749.417236	737.825989	213.868484
200.027191	750.234619	743.547363	740.946777	138.888687
200.404816	738.643372	742.581360	754.989929	415.099182
200.782410	736.488586	750.531799	759.968262	167.195892
201.159988	741.169617	762.494568	770.890686	139.372269
201.537537	737.677429	777.429382	767.472839	74.953323
201.915070	738.866211	781.738953	764.872253	60.658688
202.292557	733.665039	778.618164	754.469788	46.280983
202.670029	742.209961	774.903076	747.336731	15.681498
203.047485	743.324463	772.599670	749.863037	22.334852
203.424911	736.191406	769.256104	749.937317	41.572769
203.802292	728.463867	765.615234	750.234558	58.599972
204.179688	718.432922	760.711243	739.906433	50.790833
204.557037	725.937500	768.587341	739.683594	32.230118
204.934357	733.590759	771.782410	743.324402	25.486311
205.311661	738.866272	775.720398	748.971436	27.419355
205.688934	733.665039	769.924805	758.705078	69.057365
206.066177	727.052063	773.416992	759.299500	69.551353
206.443390	723.485657	770.221985	756.847473	71.383049
206.820587	725.789001	765.392334	750.606140	62.664268
207.197769	721.256531	758.482178	750.160339	77.644882
207.574921	725.194580	762.345886	752.983826	74.800186
207.952042	722.222473	765.169434	746.965271	57.612453
208.329147	726.383362	765.838135	747.188171	52.730782
208.706223	732.327637	776.463379	755.510071	52.525307
209.083267	738.048889	783.522156	761.231262	50.980225
209.460297	737.677429	787.237305	759.076599	43.178417
209.837280	731.213074	773.491394	747.633972	38.839996
210.214264	723.114014	766.506836	745.033447	50.513962
210.591217	722.148132	763.163269	747.336731	61.412933
210.968124	719.918945	761.305664	749.640137	71.813354
211.345016	726.606262	768.290039	744.290344	42.424377
211.721893	729.132568	771.187927	745.033447	37.809399
212.098724	733.590759	773.417053	746.668152	32.836079
212.475555	738.717590	767.472839	749.491516	37.467686
212.852356	736.191345	760.859863	749.417236	53.614452
213.229126	734.482361	763.980530	749.937317	52.392933
213.605865	733.887939	763.906250	751.274902	57.921192
213.982590	737.603088	767.324219	750.085938	41.999912
214.359283	740.278015	762.940369	750.754700	46.229465
214.735931	731.436035	761.157043	748.748535	58.250042
215.112579	738.866211	756.996155	743.101501	23.360748
215.489197	730.024231	761.454346	739.089172	28.841579
215.865799	734.556702	765.838196	738.717712	13.301828
216.242355	732.699158	772.674072	740.798157	20.260204
216.618896	747.262451	774.977356	745.776428	-5.361819
216.995407	747.633972	778.172424	748.228455	1.946669
217.371902	740.129395	773.491394	755.064270	44.766129
217.748367	725.417419	761.157043	751.497742	72.973129
218.124802	717.764221	758.036377	759.299561	103.136620
218.501236	719.027405	760.562683	752.612244	80.858589
218.877609	725.343201	771.782410	747.856934	48.480011
219.253983	732.253357	769.479004	739.757874	20.159533
219.630295	735.596924	766.729736	733.070618	-8.114610
220.006592	733.293518	766.283997	733.813721	1.576827
220.382889	732.104675	764.352051	728.835449	-10.137960
220.759140	724.971619	766.729797	735.151184	24.377417
221.135391	724.005676	766.804016	732.847717	20.659775
221.511581	723.634094	768.513000	737.825989	31.622639
221.887772	725.937561	770.816406	738.346130	27.649038
222.263931	727.646545	772.228210	744.810364	38.499725
222.640060	727.795166	778.395325	744.290344	32.599064
223.016159	729.281189	776.909241	740.649475	23.868887
223.392212	730.767273	778.692566	736.562805	12.092847
223.768265	733.665039	779.584167	738.197571	9.870684
224.144302	734.556824	776.983582	747.559631	30.647657
224.520294	735.745605	769.404724	752.017822	48.344154
224.896286	734.853943	759.893860	753.801086	75.667755
225.272217	743.250061	763.014648	756.624573	67.669067
225.648148	744.216064	760.859863	755.212891	66.071609
226.024048	745.702148	766.729736	752.835144	33.922081
226.399902	734.036560	765.392334	742.209961	26.066654
226.775772	729.132568	763.683350	743.101563	40.430328
227.151581	726.680603	758.630798	743.324402	52.092949
227.527374	734.333740	762.717468	745.627747	39.790424
227.903137	738.569031	770.816345	743.101501	14.055343
228.278870	743.695984	773.119812	753.801086	34.343262
228.654572	737.082947	774.085693	756.847473	53.413673
229.030273	736.637207	775.348877	761.900146	65.259232
229.405930	729.132629	775.423157	750.160217	45.425251
229.781555	729.578430	777.206482	745.702148	33.853409
230.157181	725.640381	776.686340	742.358459	32.751034
230.532761	727.795166	776.463562	746.370789	38.167732
230.908325	735.374023	771.187988	745.479187	28.215708
231.283859	740.278015	769.404724	750.977600	36.734615
231.659332	741.021057	776.017578	748.376953	21.018934
232.034821	731.361633	777.577942	748.451355	36.977688
232.410263	717.987122	777.949463	738.123230	33.581257
232.785690	713.528992	770.147766	736.265625	40.157410
233.161087	716.649719	770.296387	738.048889	39.889095
233.536469	722.593994	765.763855	742.135559	45.266685
233.911804	720.810730	768.141602	740.055176	40.659393
234.287140	720.141907	763.609070	738.643372	42.564232
234.662430	724.154297	770.370605	743.324402	41.479092
235.037704	727.497864	767.472839	745.033386	43.866249
235.412933	727.795166	770.519226	755.510071	64.869545
235.788162	722.222412	771.782410	755.287109	66.716499
236.163345	726.532043	773.045471	764.426453	81.469826
236.538513	732.253357	775.943359	757.516296	57.823158
236.913635	730.767273	777.726563	757.441895	56.803715
237.288742	730.024231	781.813232	753.132324	44.619694
237.663834	727.423645	790.135071	753.726807	41.943172
238.038879	732.476257	792.810059	752.909485	33.866966
238.413910	728.612488	794.890442	753.058105	36.883484
238.788910	725.714661	793.404480	753.578125	41.163448
239.163879	725.194519	788.351868	747.633972	35.529442
239.538834	723.708496	781.813232	744.513367	35.805809
239.913757	726.680603	776.983582	739.832275	26.144918
240.288651	728.389587	774.011414	745.627747	37.784897
240.663528	729.281250	775.200256	741.615479	26.860834
241.038361	726.234863	768.736023	743.993164	41.783096
241.413177	728.463867	777.577942	740.946716	25.416033
241.787979	729.801331	781.441711	748.302734	35.827396
242.162735	725.714661	789.615051	745.702148	31.279133
242.537476	726.531982	785.008240	744.810486	31.257992
242.912170	727.720886	793.553040	742.581360	22.573277
243.286865	731.658936	796.525146	744.513245	19.816648
243.661514	725.714661	806.927490	747.113831	26.349495
244.036148	725.789001	797.342468	745.850647	28.037279
244.410751	726.606262	796.153625	747.039551	29.380392
244.785339	726.011902	791.175476	746.965271	32.155033
245.159882	720.885010	795.856445	748.674255	37.066444
245.534378	719.621887	795.707825	747.113831	36.132751
245.908890	722.816895	797.788330	744.216003	28.543016
246.283356	721.033630	808.042053	743.027161	25.277473
246.657791	726.160461	812.425964	741.838379	18.174028
247.032196	726.680603	819.856262	748.748535	23.684225
247.406586	728.835388	828.252441	751.423340	22.720400
247.780960	725.640381	836.722961	759.373779	30.367857
248.155289	723.039795	834.791016	760.339783	33.377701
248.529602	731.658875	821.193665	763.311829	35.352688
248.903870	733.665039	815.249451	763.906311	37.067463
249.278122	736.934387	814.877930	756.847595	25.548246
249.652344	732.922058	817.552734	754.246887	25.197517
250.026550	735.745544	813.317566	742.061279	8.141769
250.400711	736.711426	805.738708	747.188171	15.177688
250.774857	736.934387	804.401184	741.912659	7.378847
251.148987	719.547546	800.537415	750.606140	38.348740
251.523071	713.008972	803.361023	748.451355	39.226982
251.897125	714.197754	804.772766	758.407898	48.810532
252.271164	728.984070	816.512512	757.219055	32.258068
252.645187	735.448303	829.887024	757.144714	22.974064
253.019165	732.996338	824.908875	749.417297	17.865854
253.393112	729.875671	822.754089	742.878601	13.999948
253.767044	727.572266	820.673523	745.330566	19.074179
254.140930	724.080017	825.057434	745.256348	20.971354
254.514801	730.470032	827.212219	750.680420	20.890978
254.888657	732.847717	817.998718	746.222229	15.706817
255.262466	735.522644	818.518799	742.135559	7.967737
255.636276	730.470032	811.831543	744.884766	17.716896
256.010010	729.429871	818.295898	741.541199	13.628749
256.383759	731.881836	818.890320	743.918884	13.834339
256.757446	730.024231	831.075989	741.838379	11.691185
257.131134	731.213074	834.419617	745.776367	14.110824
257.504791	726.829285	839.695068	749.714539	20.276520
257.878418	726.457703	843.038757	750.754700	20.841291
258.252014	718.061462	845.862122	749.788757	24.825611
258.625580	726.680664	856.115906	750.531799	18.427080
258.999115	732.699219	861.242859	752.537903	15.433423
259.372650	727.943787	875.583252	753.058105	17.010572
259.746124	723.039795	894.307556	753.578186	17.830788
260.119598	719.547546	918.084412	756.550293	18.637720
260.493042	727.572266	938.889160	757.887756	14.345985
260.866425	732.996399	945.502136	759.373840	12.412579
261.239838	730.395691	941.935547	752.092224	10.256475
261.613159	735.596924	924.994629	754.841370	10.160866
261.986511	724.674500	906.195984	758.779358	18.788332
262.359802	728.538269	900.177490	762.643250	19.870155
262.733063	729.132629	894.976257	759.745361	18.458794
263.106293	738.049011	898.394226	758.556458	12.789559
263.479523	733.813660	890.072266	750.308899	10.556372
263.852692	727.349304	887.025879	744.216003	10.563039
264.225861	725.343201	886.951660	741.912598	10.252803
264.598969	719.101746	889.552246	753.132324	19.965080
264.972076	714.049133	889.403625	756.847473	24.406754
265.345154	717.095520	888.660461	750.308899	19.359072
265.718201	725.640381	892.747131	744.736145	11.427284
266.091217	737.603210	907.459167	750.085938	7.349008
266.464203	730.024231	918.901672	754.469788	12.942550
266.837158	727.349304	937.923279	757.367676	14.255499
267.210114	719.696106	945.725098	752.389465	14.464232
267.583038	723.634277	954.269836	753.355286	12.886568
267.955902	725.045959	952.635193	744.587646	8.586385
268.328766	730.618652	946.542419	748.005554	8.052334
268.701569	730.098572	950.034668	741.318176	5.101302
269.074371	729.578430	953.526855	749.417236	8.858649
269.447144	723.262695	974.331543	747.708313	9.736619
269.819885	728.538269	980.721619	750.383118	8.662289
270.192596	727.943848	993.501648	752.537903	9.261281
270.565277	738.271790	993.724609	756.253113	7.039000
270.937927	733.590820	1008.362244	756.550293	8.355844
271.310577	731.510254	1033.476563	758.630798	8.981315
271.683136	723.857117	1066.689819	753.652527	8.690948
272.055725	724.377197	1092.844360	755.955872	8.570282
272.428284	727.349365	1101.314941	746.445129	5.106289
272.800812	741.095276	1098.565796	744.216003	0.873003
273.173279	749.268555	1089.500854	741.466797	-2.293068
273.545776	752.240723	1071.519531	744.290344	-2.490105
273.918152	745.999329	1069.141846	749.268616	1.011717
274.290558	734.779602	1064.757935	746.147949	3.445180
274.662964	735.448425	1064.015015	740.352356	1.492523
275.035278	731.956055	1059.705444	732.030457	0.022701
275.407593	731.584656	1058.145142	733.590759	0.614313
275.779907	728.686768	1068.844727	742.358582	4.019255
276.152161	731.584656	1076.274902	756.773254	7.307604
276.524384	739.832214	1099.085815	757.367676	4.881082
276.896606	730.990234	1109.339722	750.531799	5.164951
277.268799	735.076843	1120.039185	737.083008	0.521133
277.640930	724.525818	1125.017456	738.717590	3.543588
278.013031	730.618652	1133.339355	741.838379	2.785982
278.385162	724.154297	1138.911987	744.810364	4.980273
278.757233	727.126465	1140.992554	742.209900	3.644521
279.129272	729.281250	1146.119507	744.513184	3.654159
279.501282	732.253235	1151.617798	739.609192	1.754072
279.873230	734.408020	1158.230835	749.863037	3.646575
280.245178	737.751709	1179.258423	743.844543	1.380010
280.617126	732.476257	1204.595703	756.253113	5.036195
280.988983	727.869446	1222.874146	746.965332	3.857718
281.360870	725.789001	1242.861694	754.841309	5.618612
281.732697	726.754883	1269.313354	747.188232	3.766110
282.104492	730.990234	1301.486450	743.027161	2.109905
282.476288	726.680664	1324.817505	739.460693	2.136640
282.848053	729.058289	1334.848511	736.562988	1.238828
283.219757	730.915833	1337.151733	744.438965	2.230672
283.591461	730.024231	1331.579102	750.457520	3.396746
283.963135	730.098633	1329.498535	750.234558	3.359347
284.334747	729.801331	1336.334351	750.085999	3.344363
284.706360	736.414307	1349.040161	751.943542	2.534865
285.077942	730.767273	1372.371094	765.318054	5.385065
285.449524	732.401855	1395.182251	762.420227	4.529158
285.821014	731.361633	1417.101563	752.983704	3.153101
286.192535	742.135559	1439.912476	749.194336	1.011609
286.563995	742.432800	1468.370483	759.373840	2.333677
286.935425	738.123230	1486.128784	758.556458	2.731695
287.306824	728.166687	1493.261719	753.578186	3.321352
287.678223	729.801270	1479.218750	743.250061	1.794566
288.049561	734.631042	1464.803833	751.200500	2.269252
288.420898	735.745544	1444.147827	754.395569	2.632688
288.792145	731.287354	1436.940308	755.658691	3.453729
289.163452	728.909668	1443.033203	753.206726	3.402361
289.534668	729.355469	1470.302246	756.624573	3.680305
289.905914	721.702332	1494.376343	756.401672	4.490812
290.277039	722.519714	1528.332642	756.698914	4.241580
290.648193	724.748718	1561.917603	746.445129	2.591641
291.019318	729.875671	1598.102905	745.404968	1.788621
291.390381	732.773438	1625.372070	740.723816	0.890700
291.761475	734.110840	1621.359741	748.599915	1.633034
292.132507	734.408020	1616.975952	747.708313	1.506999
292.503510	733.962219	1595.205078	755.287170	2.476067
292.874481	731.584656	1584.059570	757.293396	3.015777
293.245422	731.807556	1578.264160	766.655457	4.116915
293.616364	731.064453	1598.697266	763.534729	3.742398
293.987213	733.813660	1638.598022	761.900085	3.104212
294.358093	734.110840	1685.111450	759.522461	2.672093
294.728943	737.751770	1731.625000	756.698914	1.906394
295.099731	735.894226	1773.308716	761.082764	2.428011
295.470490	736.265686	1805.184692	758.259277	2.057555
295.841248	728.166687	1834.014038	762.866028	3.137805
296.211975	726.903564	1849.320313	753.429626	2.363299
296.582642	725.566101	1885.134277	750.160217	2.120972
296.953308	725.789001	1923.177368	747.856934	1.843005
297.323883	724.525818	1980.464844	751.200439	2.123879
297.694519	727.497864	2006.842163	759.968201	2.538045
298.065063	731.138855	2010.260132	756.178772	1.957587
298.435608	725.714661	1982.545288	752.463684	2.128292
298.806122	722.073792	1934.545776	750.606018	2.353228
299.176575	720.587830	1872.131348	756.327393	3.103623
299.547028	730.990173	1821.977173	760.488281	2.703800
299.917450	738.197571	1796.862915	753.206726	1.417743
300.287872	743.101501	1790.249878	745.330566	0.212870
300.658234	743.993164	1794.187866	748.377014	0.417432
301.028564	741.987000	1788.466431	751.720520	0.930121
301.398865	732.773438	1784.379883	758.184875	2.416440
301.769135	727.126465	1780.738892	753.355286	2.489418
302.139374	720.513489	1796.119751	751.423401	2.873720
302.509583	721.628113	1804.813110	752.760803	2.874180
302.879791	721.182190	1803.847046	754.544128	3.081465
303.249939	724.600098	1795.599487	748.822815	2.261693
303.620087	729.281250	1791.290039	743.621643	1.350308
303.990173	730.544434	1784.528320	744.513245	1.325334
304.360260	730.841553	1781.407837	758.705078	2.652239
304.730286	731.436035	1792.924683	767.770020	3.422927
305.100281	731.287354	1797.085571	767.027039	3.353326
305.470276	724.228699	1808.305298	758.482178	3.159692
305.840179	721.330811	1806.967773	748.525635	2.504965
306.210144	719.993408	1822.794312	744.736145	2.243627
306.579987	721.107910	1825.023438	754.395508	3.015412
306.949890	724.377197	1833.568237	759.225159	3.141746
307.319702	727.572266	1849.097534	767.918640	3.597456
307.689484	732.327637	1863.214966	753.503906	1.872536
308.059265	735.299805	1895.388062	747.782532	1.076015
308.429016	732.922058	1931.202026	745.107666	1.016925
308.798737	735.374023	1983.808228	754.618408	1.541482
309.168396	735.448425	2034.928589	759.448059	1.846864
309.538055	745.479187	2072.674316	759.002258	1.018921
309.907684	746.593750	2098.531738	753.355286	0.500136
310.277313	743.175781	2109.825928	757.590515	1.054749
310.646851	737.305908	2119.336426	759.596680	1.612900
311.016388	741.243958	2140.364014	765.689514	1.747209
311.385895	742.952881	2152.921387	764.723633	1.544059
311.755371	740.129395	2169.416748	762.791748	1.585570
312.124817	735.819824	2172.908691	763.386169	1.918207
312.494232	737.677429	2166.295654	759.596741	1.534302
312.863617	738.643372	2155.596436	754.395508	1.111691
313.232971	736.934326	2137.094971	752.166443	1.087883
313.602295	735.968445	2120.005127	753.206726	1.245508
313.971619	736.637146	2119.559326	756.476074	1.434566
314.340820	734.928223	2130.853271	751.349121	1.176345
314.710083	734.630920	2162.952148	746.445129	0.827139
315.079285	731.807434	2183.682617	744.736145	0.890484
315.448486	740.946716	2216.227295	747.485352	0.443213
315.817596	736.785828	2222.171631	746.668030	0.665295
316.186707	740.203674	2197.651611	744.141785	0.270206
316.555786	727.349365	2144.673828	750.829041	1.656620
316.924866	723.485657	2101.355225	752.983704	2.140845
317.293884	723.559875	2087.386230	760.265442	2.691366
317.662872	731.213074	2094.667969	758.927917	2.032692
318.031830	728.240967	2108.339600	765.020752	2.665011
318.400757	717.764221	2123.720459	768.661621	3.620127
318.769684	715.609436	2125.726318	772.005310	3.999376
319.138550	726.680603	2136.723145	764.649231	2.692729
319.507416	732.179016	2155.744873	755.658691	1.649356
319.876190	729.206848	2180.784668	744.438965	1.049349
320.244995	732.030457	2195.645264	749.788757	1.213318
320.613770	736.042786	2178.406982	752.166504	1.117867
320.982483	738.048889	2154.035889	754.321228	1.149187
321.351166	735.894104	2129.590088	756.550293	1.482116
321.719818	732.699036	2111.980469	755.955872	1.686156
322.088440	739.089172	2110.865967	762.271667	1.689961
322.457062	736.934326	2133.974121	757.813477	1.494528
322.825623	745.776367	2173.726318	766.432556	1.446563
323.194183	742.878662	2219.570801	763.237610	1.378686
323.562653	741.169617	2257.390869	763.980652	1.504466
323.931183	725.120300	2316.015625	752.092102	1.695385
324.299591	722.742493	2378.950195	747.708252	1.507405
324.668060	721.405090	2428.733154	750.011719	1.675520
325.036407	732.179016	2472.051514	752.835144	1.187221
