Jaz Data File
++++++++++++++++++++++++++++++++++++
Date: Fri Jun 04 16:01:48 2021
User: jaz
Dark Spectrum Present: Yes
Reference Spectrum Present: Yes
Processed Spectrum Present: Yes
Spectrometers: JAZA3586
Integration Time (usec): 24600 (JAZA3586)
Spectra Averaged: 10 (JAZA3586)
Boxcar Smoothing: 1 (JAZA3586)
Correct for Electrical Dark: No (JAZA3586)
Strobe/Lamp Enabled: Yes (JAZA3586)
Correct for Detector Non-linearity: No (JAZA3586)
Correct for Stray Light: No (JAZA3586)
Number of Pixels in Processed Spectrum: 2048
>>>>>Begin Processed Spectral Data<<<<<
W	D	R	S	P
191.335022	0.000000	0.000000	0.000000	0.000000
191.713211	387.488678	386.225494	390.460815	-235.289429
192.091385	782.481934	776.240479	782.184753	4.761393
192.469528	1172.942749	1174.948853	1180.447266	374.084229
192.847641	1184.311157	1189.289429	1188.546265	85.071846
193.225739	1196.571167	1199.320190	1193.078857	-127.038185
193.603790	1211.877319	1200.360474	1190.329590	187.097488
193.981842	1215.518188	1204.224121	1193.078857	198.682465
194.359863	1208.905273	1203.852661	1200.732056	161.762222
194.737854	1212.768921	1214.849487	1209.351074	-164.274811
195.115829	1216.855591	1212.694702	1213.066284	91.069649
195.493774	1224.806030	1210.465576	1209.053833	109.844482
195.871704	1219.159058	1204.892944	1206.081787	91.666664
196.249603	1223.468628	1208.533691	1207.419189	107.462379
196.627457	1216.781372	1210.985718	1214.403687	41.025318
197.005310	1218.787598	1215.221069	1216.038452	77.081833
197.383133	1212.026001	1212.248901	1213.289185	566.703186
197.760910	1210.688599	1217.821655	1208.905273	-25.000856
198.138687	1208.013672	1216.707031	1203.629761	-50.428276
198.516449	1204.521484	1217.301392	1200.286255	-33.139751
198.894180	1206.527466	1213.883545	1201.474976	-68.684555
199.271866	1202.069458	1216.038330	1207.419312	38.298393
199.649536	1199.171753	1215.221069	1206.973389	48.610394
200.027191	1201.846558	1219.901978	1201.549316	-1.646271
200.404816	1200.360474	1213.437622	1204.521362	31.818012
200.782410	1202.440918	1226.069214	1207.121948	19.811121
201.159988	1203.183960	1232.756470	1209.276733	20.602829
201.537537	1212.397461	1237.586060	1214.552246	8.554605
201.915070	1209.796875	1236.694458	1221.982544	45.303955
202.292557	1204.149902	1234.911255	1227.852539	77.053299
202.670029	1196.422485	1242.490112	1222.354126	56.290375
203.047485	1196.050903	1249.400269	1221.759644	48.189404
203.424911	1191.592773	1261.734497	1221.685303	42.902466
203.802292	1197.462524	1257.053345	1223.765747	44.139721
204.179688	1197.314087	1248.359985	1216.707031	37.991192
204.557037	1199.691772	1237.957642	1214.032227	37.475834
204.934357	1188.397827	1239.518066	1207.493530	37.354488
205.311661	1187.060181	1244.867798	1205.264526	31.491259
205.688934	1192.038574	1253.858398	1200.137573	13.100974
206.066177	1193.004517	1257.796387	1196.794067	5.848806
206.443390	1195.902222	1252.743774	1197.982788	3.660291
206.820587	1191.741333	1246.428101	1194.267700	4.619705
207.197769	1198.057129	1237.363281	1200.434692	6.048833
207.574921	1199.914551	1239.517944	1204.967285	12.758337
207.952042	1195.307739	1233.127930	1214.403687	50.491409
208.329147	1190.626831	1241.747070	1211.803101	41.424435
208.706223	1191.444092	1237.586060	1214.032104	48.953293
209.083267	1196.868286	1233.499390	1200.360474	9.533394
209.460297	1206.378906	1227.109497	1197.462646	-43.010159
209.837280	1203.926880	1224.806030	1192.855835	-53.024403
210.214264	1195.456421	1231.567627	1204.521484	25.103188
210.591217	1186.168579	1228.595581	1205.487427	45.534321
210.968124	1186.094360	1228.223999	1209.202515	54.850113
211.345016	1190.032349	1233.053589	1204.298462	33.160629
211.721893	1193.004517	1244.496216	1198.131348	9.956616
212.098724	1191.592773	1248.657227	1189.140747	-4.296942
212.475555	1193.227417	1249.771851	1198.131226	8.672487
212.852356	1191.369873	1240.929810	1206.081665	29.684849
213.229126	1188.917847	1246.799683	1204.818604	27.471066
213.605865	1193.598999	1250.663330	1206.007446	21.744665
213.982590	1197.388550	1256.830444	1206.601929	15.499807
214.359283	1196.645386	1256.681885	1212.769043	26.856424
214.735931	1192.261475	1249.028687	1203.926880	20.549547
215.112579	1187.580444	1251.703613	1197.982788	16.222443
215.489197	1193.524536	1248.880249	1192.410034	-2.013346
215.865799	1187.431885	1243.381714	1196.125244	15.537776
216.242355	1187.357544	1238.774902	1200.806274	26.156012
216.618896	1182.379272	1232.310547	1203.481323	42.262192
216.995407	1182.230469	1236.545898	1200.063354	32.832081
217.371902	1183.270752	1230.824585	1199.914673	35.000168
217.748367	1195.084961	1229.858521	1200.286133	14.957260
218.124802	1206.304565	1228.001099	1211.877319	25.684998
218.501236	1204.001221	1234.168213	1212.248901	27.340082
218.877609	1188.843384	1244.570557	1215.369629	47.600201
219.253983	1176.063354	1250.366211	1204.001343	37.600155
219.630295	1180.744507	1244.719238	1205.487427	38.676083
220.006592	1182.453613	1247.096802	1201.029175	28.735529
220.382889	1194.119019	1249.846069	1199.171631	9.066714
220.759140	1195.307861	1256.904785	1195.456421	0.241180
221.135391	1203.852661	1257.499146	1203.258179	-1.108148
221.511581	1203.258301	1251.332153	1204.001343	1.545626
221.887772	1196.422485	1251.555054	1206.007446	17.385298
222.263931	1193.227417	1245.833740	1195.605103	4.519772
222.640060	1189.066528	1242.713013	1189.735229	1.246496
223.016159	1190.329590	1241.821411	1190.998291	1.298655
223.392212	1188.843506	1243.381714	1189.066406	0.408705
223.768265	1186.094238	1250.514771	1202.069336	24.798145
224.144302	1185.276978	1253.486938	1199.468750	20.806011
224.520294	1188.249023	1251.183594	1201.623657	21.251648
224.896286	1190.106567	1257.573608	1196.050903	8.810726
225.272217	1193.598877	1257.127808	1194.267578	1.052593
225.648148	1188.769409	1260.397095	1200.583374	16.493574
226.024048	1191.964233	1254.452759	1202.292358	16.528034
226.399902	1191.146851	1262.106079	1207.716431	23.350845
226.775772	1198.428589	1261.140015	1204.298462	9.360133
227.151581	1191.592651	1265.152344	1203.183960	15.757690
227.527374	1192.558594	1260.322754	1200.360474	11.513284
227.903137	1188.471924	1273.474243	1205.264404	19.755320
228.278870	1188.992065	1284.248169	1199.394409	10.920396
228.654572	1186.911621	1300.000366	1197.536987	9.395600
229.030273	1183.939575	1312.111816	1194.416138	8.173816
229.405930	1187.729126	1317.461548	1197.314087	7.388254
229.781555	1192.856079	1320.730957	1197.462524	3.602307
230.157181	1197.982910	1324.891846	1192.781494	-4.098542
230.532761	1198.279907	1332.024902	1200.434692	1.611115
230.908325	1194.936401	1332.396362	1201.549316	4.810793
231.283859	1189.512207	1324.297363	1212.620361	17.144436
231.659332	1186.020020	1311.442993	1205.190063	15.284316
232.034821	1189.661011	1304.978638	1206.601929	14.690658
232.410263	1187.580444	1303.567017	1204.892944	14.926297
232.785690	1192.855957	1298.588745	1209.648315	15.881884
233.161087	1187.283203	1297.028198	1205.041626	16.181534
233.536469	1194.564819	1292.272827	1200.806274	6.387865
233.911804	1192.930176	1291.009766	1200.286255	7.500112
234.287140	1193.524536	1292.421509	1202.738281	9.316508
234.662430	1192.558594	1291.604248	1200.732056	8.252216
235.037704	1197.091064	1300.223267	1200.286255	3.098150
235.412933	1202.440918	1307.430786	1204.521484	1.981683
235.788162	1197.091187	1317.164307	1204.149780	5.878580
236.163345	1193.301758	1320.507935	1208.533691	11.974209
236.538513	1195.233521	1319.244751	1205.858765	8.567969
236.913635	1197.611206	1312.260376	1204.967163	6.416058
237.288742	1196.942505	1309.585571	1201.252197	3.825972
237.663834	1191.444214	1304.012817	1193.821899	2.112210
238.038879	1189.958130	1307.802124	1196.645386	5.674668
238.413910	1192.558716	1315.380981	1193.227417	0.544446
238.788910	1196.868286	1316.644165	1203.406860	5.459008
239.163879	1202.069458	1317.089966	1198.577271	-3.036143
239.538834	1201.846558	1314.638062	1194.044800	-6.916973
239.913757	1198.800171	1325.857666	1192.038452	-5.321779
240.288651	1200.954956	1341.238281	1196.793823	-2.966235
240.663528	1200.657715	1351.046387	1197.611206	-2.025757
241.038361	1196.793945	1366.798462	1195.084961	-1.005258
241.413177	1193.524536	1384.110962	1196.719604	1.676441
241.787979	1199.394531	1414.649536	1206.527710	3.313827
242.162735	1194.490601	1437.163208	1211.431641	6.981027
242.537476	1190.849731	1452.989624	1212.323120	8.191576
242.912170	1187.729004	1465.101074	1210.019775	8.036415
243.286865	1186.837280	1482.042114	1214.403687	9.338060
243.661514	1186.391602	1493.484741	1211.654419	8.226435
244.036148	1187.134644	1488.506470	1212.174561	8.308645
244.410751	1196.422485	1474.908813	1203.629761	2.588018
244.785339	1201.995117	1457.967896	1207.047729	1.973887
245.159882	1201.252075	1450.091797	1206.676147	2.179745
245.534378	1201.549194	1447.639771	1205.858765	1.751213
245.908890	1200.806274	1471.639648	1205.190063	1.618630
246.283356	1200.360474	1503.515625	1203.332642	0.980412
246.657791	1195.976685	1551.292114	1207.047729	3.115836
247.032196	1191.741333	1598.846069	1208.459351	4.106564
247.406586	1194.787720	1662.300415	1203.109497	1.780011
247.780960	1191.667114	1722.188477	1203.555420	2.240872
248.155289	1189.363647	1747.599976	1201.400757	2.156275
248.529602	1183.047852	1741.878784	1214.849487	5.690743
248.903870	1195.159302	1695.067993	1212.991943	3.567180
249.278122	1198.725830	1649.148804	1207.642212	1.979558
249.652344	1201.995117	1596.096680	1202.292236	0.075392
250.026550	1195.456543	1558.648071	1203.109497	2.107140
250.400711	1199.989136	1534.871460	1204.818604	1.442139
250.774857	1201.400757	1520.456665	1199.691772	-0.535638
251.148987	1197.759888	1518.004517	1201.252075	1.090475
251.523071	1190.255249	1513.769165	1202.292358	3.720739
251.897125	1186.837280	1524.766113	1211.282837	7.233936
252.271164	1195.159302	1534.574097	1209.053833	4.093673
252.645187	1201.177856	1558.127930	1205.487305	1.207297
253.019165	1196.645264	1576.852173	1200.954956	1.133512
253.393112	1194.787720	1585.099976	1200.954956	1.580078
253.767044	1195.307983	1572.914429	1197.091187	0.472239
254.140930	1201.475098	1541.781616	1191.295532	-2.991293
254.514801	1196.942505	1523.131470	1187.580444	-2.870134
254.888657	1196.125244	1503.738647	1192.187134	-1.280214
255.262466	1192.855835	1508.642578	1190.106689	-0.870570
255.636276	1192.038452	1503.589966	1196.125122	1.311716
256.010010	1192.781616	1508.493774	1193.524536	0.235316
256.383759	1195.159302	1519.861938	1198.205688	0.938208
256.757446	1196.050903	1540.221069	1205.413086	2.720219
257.131134	1190.775269	1566.895874	1222.502808	8.435470
257.504791	1188.546265	1589.409668	1227.406616	9.694163
257.878418	1192.187134	1620.319458	1214.775269	5.275970
258.252014	1190.849731	1657.099243	1205.413086	3.123511
258.625580	1193.821777	1694.027710	1201.400757	1.515172
258.999115	1196.496704	1755.401733	1203.332520	1.223073
259.372650	1199.840332	1837.803345	1200.509155	0.104837
259.746124	1190.478149	1936.105957	1205.784424	2.052804
260.119598	1183.122192	2027.572632	1207.641968	2.903637
260.493042	1179.852905	2101.429443	1211.208618	3.402399
260.866425	1188.620605	2141.181396	1209.573975	2.199688
261.239838	1191.295410	2115.547119	1212.248901	2.267076
261.613159	1198.948608	2026.160767	1211.282837	1.491060
261.986511	1194.639282	1921.914063	1207.865112	1.818547
262.359802	1194.862061	1844.342163	1202.069458	1.109718
262.733063	1191.146851	1812.466309	1203.704102	2.021062
263.106293	1197.685425	1800.875000	1200.509033	0.468113
263.479523	1194.564819	1787.277710	1204.447144	1.667304
263.852692	1197.314087	1784.156860	1201.400635	0.696362
264.225861	1195.010620	1772.862915	1204.818604	1.697317
264.598969	1203.852661	1773.754517	1206.527710	0.469388
264.972076	1204.447144	1764.764038	1211.505859	1.259772
265.345154	1204.372681	1772.045532	1213.512085	1.609977
265.718201	1201.474976	1786.683105	1209.128296	1.307795
266.091217	1197.091187	1816.329956	1201.029297	0.635960
266.464203	1191.146973	1851.846558	1200.583374	1.428244
266.837158	1188.843628	1894.124878	1204.447144	2.212382
267.210114	1190.255371	1932.836548	1206.230347	2.151277
267.583038	1194.342041	1960.328735	1207.567749	1.726624
267.955902	1189.958130	1966.272949	1212.694702	2.928782
268.328766	1188.174805	1969.913696	1215.889771	3.545297
268.701569	1189.586548	1969.022095	1217.895874	3.632029
269.074371	1193.598877	1982.842407	1210.762817	2.174733
269.447144	1195.679321	1986.185913	1209.499756	1.748301
269.819885	1195.307861	2008.030884	1206.156128	1.334805
270.192596	1201.549316	2029.504395	1202.218140	0.080780
270.565277	1202.218140	2077.132568	1197.239746	-0.569015
270.937927	1208.310791	2138.655273	1197.165405	-1.197985
271.310577	1201.846558	2206.642334	1196.273682	-0.554628
271.683136	1200.731934	2290.901611	1201.846558	0.102243
272.055725	1192.038452	2350.640869	1201.103394	0.782403
272.428284	1194.341919	2380.659180	1207.864990	1.139920
272.800812	1191.592773	2357.179443	1204.447144	1.102824
273.173279	1188.843384	2322.554443	1206.527710	1.559862
273.545776	1186.242798	2302.789795	1203.852905	1.577194
273.918152	1189.735229	2282.059326	1207.344971	1.612135
274.290558	1196.199585	2252.784180	1210.094116	1.315042
274.662964	1199.691772	2237.403564	1209.722534	0.966623
275.035278	1199.245972	2224.474854	1209.945435	1.043617
275.407593	1191.146851	2239.260986	1212.620361	2.048776
275.779907	1190.106567	2248.400391	1214.329224	2.288840
276.152161	1190.998169	2273.885986	1215.518188	2.264318
276.524384	1191.443970	2305.910889	1207.642090	1.453441
276.896606	1188.769287	2340.981689	1205.041626	1.412269
277.268799	1193.227417	2373.451904	1208.682495	1.309503
277.640930	1202.515259	2388.015137	1204.150024	0.137897
278.013031	1202.812378	2398.863281	1212.471802	0.807610
278.385162	1199.691772	2404.064697	1214.329346	1.215369
278.757233	1193.970337	2396.411377	1219.976440	2.162776
279.129272	1203.035522	2384.374268	1215.592529	1.062947
279.501282	1201.177856	2381.996582	1210.465576	0.786549
279.873230	1202.069458	2407.185303	1211.580200	0.789197
280.245178	1192.187134	2443.965088	1200.286133	0.647000
280.617126	1189.437988	2506.305176	1195.456543	0.457036
280.988983	1188.323364	2566.193115	1190.923950	0.188740
281.360870	1190.478149	2625.858154	1197.982788	0.522833
281.732697	1191.518433	2684.780273	1205.784546	0.955366
282.104492	1189.809448	2746.376953	1206.973267	1.102671
282.476288	1187.431763	2805.150391	1206.824707	1.198784
282.848053	1190.775391	2847.577393	1198.279907	0.452952
283.219757	1196.125244	2867.639404	1197.239746	0.066676
283.591461	1195.605103	2852.555908	1197.165527	0.094174
283.963135	1194.267700	2831.676758	1200.954956	0.408405
284.334747	1195.159302	2827.441406	1204.075562	0.546245
284.706360	1198.205688	2861.174805	1206.230347	0.482550
285.077942	1198.428589	2914.375732	1207.047729	0.502296
285.449524	1195.530762	2967.427734	1204.298462	0.494820
285.821014	1198.651489	3006.436768	1204.447144	0.320594
286.192535	1197.982788	3066.919189	1204.075562	0.326002
286.563995	1197.388428	3120.863037	1211.951782	0.757138
286.935425	1192.187256	3173.915039	1212.769043	1.038578
287.306824	1193.078735	3157.642578	1209.796997	0.850991
287.678223	1195.605103	3115.438721	1200.732056	0.267052
288.049561	1202.738159	3054.510498	1200.806274	-0.104326
288.420898	1202.663818	3007.105469	1198.502930	-0.230591
288.792145	1201.326294	2986.672119	1203.926880	0.145663
289.163452	1192.484253	2991.799072	1204.892944	0.689634
289.534668	1187.431641	3032.294189	1206.824829	1.051200
289.905914	1182.304810	3074.349365	1210.762939	1.504094
290.277039	1188.769165	3150.732422	1205.041626	0.829397
290.648193	1187.060181	3225.183594	1208.162231	1.035367
291.019318	1189.214966	3303.127197	1198.502808	0.439367
291.390381	1181.859131	3336.786377	1204.670044	1.058547
291.761475	1183.865356	3328.687500	1208.162231	1.132815
292.132507	1182.825073	3301.418701	1213.660645	1.455474
292.503510	1179.852905	3267.462158	1212.546021	1.566055
292.874481	1183.493652	3247.177734	1214.552246	1.505007
293.245422	1187.134644	3249.332275	1213.214844	1.264680
293.616364	1188.992188	3284.106201	1208.756714	0.943363
293.987213	1188.620605	3327.870361	1210.094116	1.003787
294.358093	1190.106689	3409.305908	1211.282959	0.954230
294.728943	1195.902344	3496.983154	1218.861816	0.997769
295.099731	1198.800049	3603.384521	1211.580200	0.531491
295.470490	1194.416138	3661.860596	1209.648315	0.617326
295.841248	1192.112793	3702.355713	1207.567749	0.615676
296.211975	1192.261475	3742.330811	1209.796875	0.687644
296.582642	1197.313965	3815.890625	1214.998047	0.675332
296.953308	1196.348145	3898.218018	1211.357300	0.555510
297.323883	1190.552612	3972.149170	1204.075562	0.486158
297.694519	1186.391602	4024.384033	1199.171509	0.450315
298.065063	1191.147095	4035.455078	1196.942505	0.203755
298.435608	1195.382202	3997.709229	1203.927002	0.304918
298.806122	1196.719604	3882.242920	1213.957764	0.641892
299.176575	1197.165405	3752.212891	1220.942261	0.930584
299.547028	1196.942505	3644.473877	1220.570679	0.965388
299.917450	1197.091187	3595.657227	1215.072388	0.749665
300.287872	1197.239746	3577.899170	1219.753418	0.945691
300.658234	1196.719604	3559.768799	1219.679199	0.971609
301.028564	1198.577271	3535.249023	1214.923706	0.699561
301.398865	1196.125244	3521.800049	1209.499634	0.575076
301.769135	1195.605103	3506.642578	1213.660522	0.781269
302.139374	1193.524536	3519.571289	1218.713135	1.082893
302.509583	1190.923950	3534.283203	1220.050537	1.242941
302.879791	1192.038452	3539.707764	1222.205444	1.284976
303.249939	1189.958008	3516.822266	1219.530396	1.270912
303.620087	1197.982788	3488.364014	1212.248901	0.622871
303.990173	1195.605103	3468.005127	1202.292358	0.294282
304.360260	1195.456421	3454.110352	1201.177734	0.253306
304.730286	1186.243042	3436.054932	1201.400757	0.673733
305.100281	1186.763062	3434.494385	1199.320190	0.558658
305.470276	1183.939575	3457.008057	1198.502808	0.640686
305.840179	1185.648560	3471.051514	1205.338745	0.861563
306.210144	1186.614502	3482.791260	1204.372803	0.773386
306.579987	1194.193359	3489.404297	1205.115845	0.475882
306.949890	1200.211914	3510.134766	1202.440796	0.096492
307.319702	1197.759766	3546.765869	1206.156006	0.357438
307.689484	1193.375977	3583.545898	1206.824829	0.562674
308.059265	1188.843628	3633.922852	1211.505981	0.926856
308.429016	1189.215088	3703.395752	1213.512085	0.966398
308.798737	1191.444092	3776.807373	1211.060181	0.758736
309.168396	1191.221191	3856.682861	1205.264526	0.526863
309.538055	1188.546265	3903.790771	1204.967285	0.604771
309.907684	1185.648560	3950.378174	1208.385132	0.822380
310.277313	1187.803345	3985.821045	1206.601929	0.671854
310.646851	1196.496704	4020.371826	1212.397583	0.563087
311.016388	1207.493530	4042.662842	1218.564575	0.390490
311.385895	1204.372681	4044.520264	1227.035034	0.797929
311.755371	1200.732056	4044.891602	1226.069214	0.890849
312.124817	1194.044800	4049.498291	1217.524414	0.822273
312.494232	1196.125244	4037.386963	1203.035278	0.243203
312.863617	1191.890015	4016.136719	1203.852661	0.423569
313.232971	1184.236694	3975.195557	1203.258179	0.681539
313.602295	1190.032349	3947.629150	1216.484131	0.959233
313.971619	1188.694946	3945.325928	1220.942261	1.169809
314.340820	1193.450317	3949.709717	1221.090942	1.002831
314.710083	1188.174927	3985.226563	1210.614258	0.802249
315.079285	1191.444214	4022.452148	1205.487427	0.496050
315.448486	1189.809570	4070.451904	1207.716431	0.621627
315.817596	1184.608276	4078.922607	1216.484253	1.101331
316.186707	1186.094360	4034.637939	1208.905273	0.800792
316.555786	1189.140747	3955.728516	1208.830933	0.711714
316.924866	1192.187134	3873.326904	1205.115845	0.482210
317.293884	1192.261353	3826.218750	1209.202515	0.643183
317.662872	1194.193359	3804.670898	1210.317017	0.617652
318.031830	1193.970459	3821.017334	1215.592529	0.823056
318.400757	1194.119019	3837.884033	1219.456177	0.958374
318.769684	1192.855957	3864.929932	1219.679077	1.003832
319.138550	1193.153076	3899.555420	1217.970093	0.916974
319.507416	1197.388306	3934.106201	1209.573853	0.445261
