Jaz Data File
++++++++++++++++++++++++++++++++++++
Date: Fri Jun 04 16:36:27 2021
User: jaz
Dark Spectrum Present: Yes
Reference Spectrum Present: Yes
Processed Spectrum Present: Yes
Spectrometers: JAZA3586
Integration Time (usec): 40000 (JAZA3586)
Spectra Averaged: 10 (JAZA3586)
Boxcar Smoothing: 1 (JAZA3586)
Correct for Electrical Dark: No (JAZA3586)
Strobe/Lamp Enabled: Yes (JAZA3586)
Correct for Detector Non-linearity: No (JAZA3586)
Correct for Stray Light: No (JAZA3586)
Number of Pixels in Processed Spectrum: 2048
>>>>>Begin Processed Spectral Data<<<<<
W	D	R	S	P
191.335022	0.000000	0.000000	0.000000	0.000000
191.713211	235.539627	237.917343	241.335251	243.747513
192.091385	476.280426	474.943024	481.110138	-361.126312
192.469528	722.668274	719.027527	728.686829	-165.310974
192.847641	729.504150	732.847717	732.773438	97.778427
193.225739	737.825989	749.268555	740.500977	23.377518
193.603790	744.141785	755.807312	746.073547	16.559584
193.981842	754.246887	753.429626	751.572021	327.296478
194.359863	759.968262	752.612305	755.658691	58.586128
194.737854	758.482239	759.225281	755.955872	-340.003296
195.115829	763.088928	769.701965	754.841370	-124.716652
195.493774	763.534851	771.782410	755.955872	-91.893616
195.871704	769.627625	772.451172	756.030273	-481.569794
196.249603	763.683411	763.757629	763.980652	400.493408
196.627457	755.881592	764.500671	768.810242	150.000351
197.005310	756.401672	763.386169	769.999023	194.679031
197.383133	756.104492	766.283936	765.169373	89.050842
197.760910	762.717468	769.256042	761.974365	-11.364909
198.138687	758.259277	768.958801	761.454285	29.861210
198.516449	763.609070	776.314758	765.095154	11.696210
198.894180	757.962097	772.822571	766.952698	60.500095
199.271866	760.191101	764.797913	767.249939	153.226105
199.649536	755.212891	757.367676	766.952637	544.822144
200.027191	756.401672	762.345886	763.980530	127.499741
200.404816	749.565857	763.014648	762.494446	96.131973
200.782410	748.302734	770.965027	767.992920	86.885231
201.159988	756.550293	771.633789	767.918640	75.369446
201.537537	759.448059	786.419983	766.804138	27.273098
201.915070	757.516296	790.209473	761.157166	11.136480
202.292557	752.389343	789.912292	765.318054	34.455475
202.670029	759.893982	793.181458	766.432617	19.642929
203.047485	755.361389	786.122803	759.002258	11.835832
203.424911	751.646301	790.432373	755.361511	9.578722
203.802292	742.507080	787.608887	755.584290	28.994869
204.179688	745.924988	791.101074	762.791748	37.335594
204.557037	746.890869	787.311707	763.831970	41.911800
204.934357	749.045715	786.122803	755.881592	18.436930
205.311661	749.120056	783.076355	751.274841	6.345760
205.688934	746.222229	785.008301	742.581360	-9.387053
206.066177	740.203613	777.949524	749.937317	25.787439
206.443390	738.494690	772.971191	753.429626	43.319176
206.820587	739.534973	766.655457	757.516174	66.301186
207.197769	743.175781	775.125977	757.962097	46.279266
207.574921	747.485352	779.955627	749.937439	7.551791
207.952042	749.714539	777.355042	751.200500	5.376030
208.329147	745.702087	779.584167	750.308899	13.596601
208.706223	752.983826	793.553040	767.101318	34.798538
209.083267	749.342957	799.200012	759.373840	20.119286
209.460297	759.225159	798.754211	752.240723	-17.669121
209.837280	752.760803	787.460205	736.265686	-47.537182
210.214264	747.411133	791.175354	736.711426	-24.448526
210.591217	738.271912	781.293152	741.392578	7.253781
210.968124	733.070618	783.596497	738.197510	10.147061
211.345016	739.832214	783.150696	747.411133	17.495808
211.721893	738.346130	781.887512	741.318176	6.825796
212.098724	740.129395	780.104309	742.507080	5.947944
212.475555	743.547302	774.605896	740.129456	-11.004512
212.852356	740.055115	774.828796	745.256348	14.957383
213.229126	738.866272	775.794678	754.915710	43.460957
213.605865	737.454529	767.844238	757.813477	66.992897
213.982590	742.061340	767.844238	752.092102	38.904709
214.359283	746.890930	760.042480	749.194336	17.514328
214.735931	741.169678	767.770020	739.906494	-4.748749
215.112579	745.479187	770.221985	741.615479	-15.615487
215.489197	737.083008	771.782410	740.352356	9.421915
215.865799	736.637207	775.646057	742.878601	15.999944
216.242355	728.092285	773.491272	748.525574	45.008247
216.618896	734.110840	778.915344	746.816650	28.358334
216.995407	735.968445	770.816406	751.720642	45.202637
217.371902	738.271790	773.342773	749.788757	32.839020
217.748367	735.522644	765.392334	741.169617	18.905361
218.124802	740.426575	775.125977	737.231628	-9.207497
218.501236	746.147949	772.005310	732.104736	-54.310310
218.877609	748.079773	777.652344	740.129395	-26.884298
219.253983	741.095276	769.553284	740.278015	-2.871813
219.630295	736.934387	769.107422	745.330566	26.096945
220.006592	736.934387	763.460449	743.695984	25.490391
220.382889	739.237793	764.797852	739.163391	-0.291086
220.759140	737.231628	767.992920	734.779602	-7.971142
221.135391	739.609314	776.389160	734.408142	-14.141364
221.511581	742.729980	777.949524	733.962219	-24.894590
221.887772	746.147949	781.218811	740.798096	-15.254412
222.263931	749.194275	777.280762	744.959045	-15.079243
222.640060	748.154053	779.286926	750.828918	8.591773
223.016159	747.633972	780.921631	752.835144	15.624926
223.392212	738.866211	789.243469	752.612305	27.286308
223.768265	736.414246	790.135071	742.061279	10.511815
224.144302	738.049011	788.574707	731.733215	-12.500166
224.520294	744.884766	777.652283	730.395752	-44.217613
224.896286	750.606140	781.293030	732.922058	-57.627483
225.272217	750.531738	777.875183	737.900391	-46.195160
225.648148	752.017822	774.382996	741.392578	-47.507988
226.024048	741.987000	776.314880	752.315125	30.086695
226.399902	738.420410	786.419983	752.686584	29.721460
226.775772	739.832214	798.828613	752.983826	22.292227
227.151581	749.194336	795.261963	746.816650	-5.161294
227.527374	748.154114	792.438477	741.912659	-14.094038
227.903137	747.411072	788.574707	724.971680	-54.512657
228.278870	742.061279	788.054688	723.188416	-41.033844
228.654572	749.417236	785.454102	731.436035	-49.896687
229.030273	740.352356	787.980408	746.445129	12.792405
229.405930	741.987000	786.048523	750.383118	19.055443
229.781555	729.652649	782.184814	742.507080	24.469639
230.157181	729.652771	788.574768	738.866211	15.636673
230.532761	730.470032	785.602600	736.785828	11.455653
230.908325	736.934387	786.345642	743.621643	13.533872
231.283859	737.305908	782.779114	748.897156	25.490280
231.659332	739.683594	790.357971	754.321289	28.885792
232.034821	743.547363	794.964783	751.349121	15.173375
232.410263	747.931152	789.837891	743.175781	-11.347509
232.785690	743.695984	781.961853	735.745422	-20.777163
233.161087	739.460693	775.423157	739.163391	-0.826702
233.536469	736.562805	766.655518	746.296570	32.345921
233.911804	730.915833	767.547180	746.890930	43.610455
234.287140	736.562805	766.135437	740.649597	13.819508
234.662430	739.832214	780.995911	739.312012	-1.263741
235.037704	753.206726	784.933899	738.791992	-45.433403
235.412933	751.349121	791.546875	736.042786	-38.077587
235.788162	750.308899	786.642883	731.807434	-50.920551
236.163345	744.438965	786.865784	734.408020	-23.642935
236.538513	742.209961	784.636780	741.243896	-2.277014
236.913635	737.008728	790.580994	740.872375	7.212029
237.288742	735.522644	793.330139	744.587585	15.681256
237.663834	736.488586	791.621155	748.005554	20.889591
238.038879	739.237793	782.779114	752.463684	30.375494
238.413910	737.974609	784.190918	750.160339	26.366732
238.788910	742.878601	789.540710	744.810547	4.140288
239.163879	738.271790	791.175354	739.683594	2.668637
239.538834	739.312073	782.110413	735.448425	-9.027564
239.913757	733.665039	779.955627	732.253357	-3.049609
240.288651	734.556641	781.664612	732.773438	-3.785353
240.663528	735.299744	789.615051	736.414307	2.052024
241.038361	735.002441	788.500488	737.008728	3.750205
241.413177	736.562805	784.933899	737.974609	2.918694
241.787979	730.915833	787.460266	738.791931	13.929043
242.162735	731.807556	795.187744	736.860107	7.971815
242.537476	737.677429	801.503479	743.695984	9.429621
242.912170	747.485352	795.336365	744.067383	-7.142939
243.286865	745.999329	787.608887	746.816650	1.964265
243.661514	738.346191	784.785339	738.791992	0.959968
244.036148	737.677429	786.791504	739.980774	4.689785
244.410751	740.203796	798.308411	741.243958	1.790152
244.785339	742.135559	805.070007	743.770264	2.597472
245.159882	738.271790	801.577698	740.352356	3.286528
245.534378	739.980774	800.686218	753.503906	22.276638
245.908890	746.668152	793.776062	755.807312	19.400478
246.283356	744.736267	794.073242	755.287170	21.385387
246.657791	742.581360	791.026794	735.448425	-14.723646
247.032196	737.008728	799.943115	734.556702	-3.896163
247.406586	736.637207	811.905823	733.888000	-3.652527
247.780960	730.395813	814.506348	741.764099	13.515888
248.155289	731.733215	806.258789	742.432800	14.356931
248.529602	733.813660	798.308411	744.959167	17.281263
248.903870	740.278015	786.568604	742.729980	5.296898
249.278122	738.791992	788.946289	737.900330	-1.777839
249.652344	736.340027	792.958679	739.534973	5.642922
250.026550	736.860046	800.686096	742.878601	9.429621
250.400711	735.225403	797.491028	750.308899	24.224436
250.774857	737.603210	794.147461	751.572021	24.704210
251.148987	740.278076	789.466492	758.259277	36.555763
251.523071	739.460693	794.296082	750.903320	20.867231
251.897125	737.603027	798.531311	750.457520	21.097742
252.271164	731.733154	807.967773	741.466858	12.768088
252.645187	740.055115	813.837708	747.411133	9.969855
253.019165	733.070618	810.642761	750.903320	22.988539
253.393112	741.689758	814.506409	753.280945	15.918319
253.767044	735.894104	814.060608	752.092102	20.722429
254.140930	745.330627	812.500244	746.593750	1.880497
254.514801	735.745605	799.868835	751.200500	24.101866
254.888657	737.677429	787.088684	752.315125	29.624212
255.262466	742.284180	784.859680	757.367676	35.427643
255.636276	744.067566	790.358093	748.302734	9.149104
256.010010	745.702148	804.921387	744.661865	-1.756664
256.383759	740.129395	811.608643	734.853943	-7.380396
256.757446	741.318176	819.038879	733.442139	-10.133770
257.131134	739.534973	811.608643	731.658875	-10.927845
257.504791	738.791931	810.419739	737.083008	-2.385838
257.878418	735.968445	807.001892	743.695984	10.878733
258.252014	736.860046	812.500244	748.154053	14.931223
258.625580	739.906433	824.908875	748.079773	9.615417
258.999115	740.946716	831.521729	745.925049	5.496364
259.372650	738.643311	845.564941	749.343018	10.007055
259.746124	738.271790	855.224304	752.315125	12.007724
260.119598	736.637207	866.815613	752.017883	11.815075
260.493042	740.426575	865.255188	743.175842	2.202434
260.866425	737.528809	863.100403	745.033386	5.976334
261.239838	736.860107	855.298645	741.615417	4.015002
261.613159	735.076843	852.549500	741.763977	5.692502
261.986511	737.825989	845.490723	725.491760	-11.456145
262.359802	738.569031	840.883972	725.640381	-12.636131
262.733063	743.250061	833.007874	728.835449	-16.059450
263.106293	739.832214	827.137878	741.021057	1.361702
263.479523	743.027283	830.555847	747.485413	5.093343
263.852692	730.915833	832.339050	743.101563	12.014734
264.225861	734.779602	835.162598	731.956116	-2.812714
264.598969	737.305847	835.459778	727.943848	-9.538079
264.972076	739.386414	831.967529	734.482422	-5.296968
265.345154	737.900330	834.791016	741.169678	3.374265
265.718201	734.928223	831.224548	750.457520	16.126572
266.091217	743.250061	844.004578	749.565857	6.268499
266.464203	745.479187	848.462708	757.144775	11.327626
266.837158	748.897156	856.710388	748.525635	-0.344597
267.210114	748.302734	861.614258	744.884766	-3.016435
267.583038	750.234558	873.502747	735.151123	-12.236276
267.955902	750.160217	871.793762	736.637207	-11.117829
268.328766	748.599915	872.611145	738.866211	-7.849050
268.701569	746.965149	867.187012	743.101501	-3.213764
269.074371	742.284180	875.806152	745.256287	2.225931
269.447144	740.203674	877.960938	739.832214	-0.269648
269.819885	735.596924	887.323059	745.702148	6.660174
270.192596	739.757874	894.456116	747.856934	5.235393
270.565277	736.117004	908.425049	758.705078	13.109123
270.937927	743.101501	912.214539	752.909485	5.799661
271.310577	740.723816	925.143250	749.788757	4.915394
271.683136	741.838379	932.424866	744.067444	1.169582
272.055725	738.049011	938.963440	741.689758	1.812088
272.428284	739.683594	933.093567	744.513245	2.497105
272.800812	742.878662	935.174072	745.627747	1.429615
273.173279	745.702148	932.722107	752.909485	3.853779
273.545776	740.723816	938.369141	752.835144	6.127809
273.918152	734.036621	933.093567	751.794922	8.921216
274.290558	732.624817	937.774597	747.262451	7.135096
274.662964	738.197510	924.251526	739.683594	0.798738
275.035278	743.175781	919.793396	738.717590	-2.524205
275.407593	738.940613	919.867737	745.553467	3.654982
275.779907	742.432800	933.910950	749.342957	3.608849
276.152161	741.689758	951.594971	748.451233	3.221204
276.524384	744.290344	957.316223	746.073669	0.837140
276.896606	744.513245	964.895081	747.559753	1.382377
277.268799	755.064270	969.724792	753.578186	-0.692295
277.640930	753.652527	977.823792	753.206726	-0.198866
278.013031	750.754700	979.532776	754.024109	1.429075
278.385162	744.141785	973.885742	750.085938	2.587295
278.757233	754.246887	974.851746	743.993164	-4.648004
279.129272	752.537903	983.990906	741.169678	-4.911677
279.501282	757.516296	996.548096	738.346191	-8.019897
279.873230	748.897156	998.702881	742.135681	-2.706693
280.245178	742.730042	997.588379	741.020996	-0.670586
280.617126	735.596985	1010.219788	744.067383	3.084375
280.988983	735.819824	1028.126831	750.531738	5.033035
281.360870	743.918884	1047.891235	752.760925	2.908831
281.732697	743.993164	1054.429810	747.039551	0.981323
282.104492	744.661865	1068.918823	740.723816	-1.214484
282.476288	736.191406	1091.952759	740.278015	1.148694
282.848053	738.866211	1104.732788	745.553467	1.827785
283.219757	736.785828	1101.983643	748.525635	3.214643
283.591461	740.129395	1097.451172	756.030273	4.450017
283.963135	741.764160	1095.667969	764.352112	6.382512
284.334747	738.049011	1104.955811	768.215820	8.221927
284.706360	740.575195	1105.550293	756.996094	4.499183
285.077942	738.494812	1118.181641	749.491516	2.896256
285.449524	743.250183	1134.453979	742.655701	-0.151962
285.821014	737.603088	1153.846924	739.757874	0.517674
286.192535	740.055176	1171.382446	735.968445	-0.947478
286.563995	737.751709	1191.072632	728.538147	-2.032459
286.935425	747.708252	1201.772217	735.745544	-2.634586
287.306824	750.160217	1196.273804	745.330566	-1.082606
287.678223	754.767029	1184.979858	750.308899	-1.036261
288.049561	752.983704	1178.441162	753.503906	0.122269
288.420898	748.376953	1175.097534	746.370789	-0.470135
288.792145	749.937317	1180.521606	748.822754	-0.258849
289.163452	750.977600	1175.469116	744.141785	-1.610354
289.534668	748.897156	1186.243042	746.816589	-0.475726
289.905914	748.599915	1198.057129	749.491516	0.198373
290.277039	746.370850	1227.183716	753.726807	1.529900
290.648193	753.578186	1252.966797	749.268616	-0.862969
291.019318	744.513367	1266.935669	741.912659	-0.497817
291.390381	742.581482	1277.635254	734.482422	-1.513691
291.761475	740.649597	1271.096558	737.083008	-0.672374
292.132507	743.175781	1268.421753	743.175781	0.000000
292.503510	747.039551	1258.836670	744.959167	-0.406486
292.874481	744.959045	1262.923340	745.776367	0.157795
293.245422	745.999329	1268.347412	743.547363	-0.469412
293.616364	745.925049	1282.019043	741.689758	-0.790028
293.987213	745.850769	1299.331665	741.318176	-0.818925
294.358093	746.667969	1330.167236	742.804260	-0.662162
294.728943	740.649475	1359.294067	747.633972	1.129000
295.099731	737.603027	1393.176147	752.389343	2.255479
295.470490	738.123230	1415.689819	752.463623	2.116455
295.841248	735.299744	1432.482056	754.172607	2.707020
296.211975	735.002502	1443.033203	749.714417	2.077864
296.582642	735.002502	1452.395142	750.977539	2.226819
296.953308	741.689758	1481.298950	748.228333	0.884058
297.323883	744.216064	1509.608398	750.308899	0.796041
297.694519	744.587585	1534.796997	744.661865	0.009400
298.065063	743.918762	1546.908325	751.126221	0.897578
298.435608	741.912659	1534.871216	754.841370	1.630440
298.806122	736.637207	1508.939575	756.624695	2.588039
299.176575	735.448242	1464.803711	745.925049	1.436447
299.547028	732.699036	1429.435669	733.590820	0.127995
299.917450	733.962219	1411.751587	732.104675	-0.274059
300.287872	737.974609	1410.859985	740.500916	0.375444
300.658234	741.095398	1424.160156	749.120056	1.174802
301.028564	745.330566	1431.441772	748.451355	0.454852
301.398865	751.943542	1438.797852	739.089172	-1.871484
301.769135	751.349121	1433.893921	742.952881	-1.230138
302.139374	753.503906	1430.104492	748.154114	-0.790687
302.509583	741.095276	1426.612183	752.017883	1.593339
302.879791	748.451355	1427.206665	745.553528	-0.426933
303.249939	748.079773	1425.571899	736.488586	-1.710896
303.620087	750.754639	1424.160278	736.934387	-2.052292
303.990173	746.445129	1425.200562	745.404846	-0.153263
304.360260	740.055115	1431.664917	751.943542	1.718950
304.730286	740.426575	1433.596680	758.184875	2.561897
305.100281	738.420410	1442.587280	749.565857	1.582785
305.470276	737.677429	1446.302368	753.355286	2.212434
305.840179	737.677429	1453.286987	750.754700	1.827431
306.210144	729.578430	1460.122681	749.194336	2.685108
306.579987	730.544373	1462.054688	751.572021	2.874553
306.949890	725.194580	1475.131836	753.503906	3.774893
307.319702	736.340027	1483.973999	750.308838	1.868402
307.689484	739.906555	1496.085327	746.965271	0.933472
308.059265	742.804382	1511.985962	740.872375	-0.251177
308.429016	736.860107	1536.505981	744.364685	0.938488
308.798737	738.123230	1572.691406	740.798157	0.320516
309.168396	741.541199	1601.520874	741.764099	0.025919
309.538055	742.061279	1619.799316	740.723816	-0.152376
309.907684	738.420471	1642.313110	743.993164	0.616522
310.277313	726.977844	1656.505005	745.627869	2.006399
310.646851	732.624817	1675.675171	747.262451	1.552158
311.016388	738.940613	1684.219849	743.027161	0.432311
311.385895	750.011719	1698.114380	742.507019	-0.791549
311.755371	752.612305	1700.343384	739.832214	-1.348493
312.124817	753.801086	1709.557007	741.095398	-1.329386
312.494232	752.017822	1702.721069	736.860168	-1.594362
312.863617	742.135559	1703.761353	744.587646	0.254994
313.232971	742.581360	1689.792603	741.838379	-0.078439
313.602295	742.581360	1679.910278	750.903320	0.887838
313.971619	748.228455	1674.040161	746.445068	-0.192629
314.340820	739.163513	1688.603516	748.451355	0.978244
314.710083	743.918884	1723.823120	745.553467	0.166810
315.079285	739.609375	1758.299683	741.615417	0.196924
315.448486	747.262512	1771.971313	737.974609	-0.906394
315.817596	750.457520	1760.380249	743.027161	-0.735735
316.186707	750.606140	1746.039673	741.095276	-0.955449
316.555786	749.268738	1725.234985	745.776367	-0.357837
316.924866	745.702148	1713.866577	743.175781	-0.260944
317.293884	746.965332	1705.767578	747.782654	0.085244
317.662872	748.005554	1698.040039	749.268616	0.132949
318.031830	745.776367	1687.489136	741.020996	-0.504970
318.400757	745.553528	1689.049438	743.175781	-0.252015
318.769684	743.844543	1701.532227	741.318176	-0.263799
319.138550	739.312073	1723.823120	742.581360	0.332072
319.507416	743.695984	1740.244141	739.237793	-0.447363
319.876190	746.445129	1749.160278	743.175842	-0.326043
320.244995	753.652527	1759.042603	750.383118	-0.325188
320.613770	752.760925	1748.194336	753.280945	0.052241
320.982483	744.290344	1732.070679	749.491516	0.526551
321.351166	733.293640	1711.043091	750.829041	1.793445
321.719818	729.801331	1700.046265	752.537903	2.343385
322.088440	735.819885	1712.529297	757.144714	2.183334
322.457062	740.203674	1727.761230	745.924988	0.579340
322.825623	738.791992	1749.234741	745.033386	0.617689
323.194183	737.157288	1777.841309	746.445129	0.892475
323.562653	736.117004	1808.528320	757.813477	2.023148
323.931183	740.723816	1846.794067	758.184998	1.578668
324.299591	740.500916	1883.648438	757.590515	1.494960
324.668060	739.683533	1928.824341	755.584412	1.337174
325.036407	741.912659	1974.074707	750.754700	0.717604
