Jaz Data File
++++++++++++++++++++++++++++++++++++
Date: Fri Jun 04 16:45:13 2021
User: jaz
Dark Spectrum Present: Yes
Reference Spectrum Present: Yes
Processed Spectrum Present: Yes
Spectrometers: JAZA3586
Integration Time (usec): 60600 (JAZA3586)
Spectra Averaged: 10 (JAZA3586)
Boxcar Smoothing: 1 (JAZA3586)
Correct for Electrical Dark: No (JAZA3586)
Strobe/Lamp Enabled: Yes (JAZA3586)
Correct for Detector Non-linearity: No (JAZA3586)
Correct for Stray Light: No (JAZA3586)
Number of Pixels in Processed Spectrum: 2048
>>>>>Begin Processed Spectral Data<<<<<
W	D	R	S	P
191.335022	0.000000	0.000000	0.000000	0.000000
191.713211	232.493210	234.870911	234.202194	71.875504
192.091385	473.456940	475.314545	468.107178	-287.992432
192.469528	711.374268	717.838623	704.464172	-106.895348
192.847641	721.033630	726.829285	709.813965	-193.587555
193.225739	724.451599	734.110840	717.169922	-75.385605
193.603790	736.042725	744.959045	725.194519	-121.666840
193.981842	747.039551	755.361511	732.327637	-176.784241
194.359863	754.246887	760.488464	738.197510	-257.136566
194.737854	757.367676	759.893982	748.377014	-355.881714
195.115829	756.401672	756.401672	750.680359	0.000000
195.493774	757.367676	752.983826	753.726868	83.050468
195.871704	756.773254	751.646301	752.240723	88.405952
196.249603	758.556458	750.754700	757.516296	13.332395
196.627457	758.259277	756.847473	759.373840	-78.946007
197.005310	753.949707	758.556458	751.869202	-45.162102
197.383133	750.085999	758.927979	747.485352	-29.412495
197.760910	746.222351	754.321228	747.782532	19.264160
198.138687	744.290344	752.092224	751.720642	95.237274
198.516449	742.952942	748.822754	750.011658	120.254547
198.894180	746.742371	747.782532	750.085938	321.447021
199.271866	757.590515	744.067444	751.126160	47.802422
199.649536	756.030212	737.231689	753.949707	11.067388
200.027191	751.794922	740.723877	751.794922	-0.000000
200.404816	744.736145	748.005554	751.869324	218.179443
200.782410	741.838379	768.958801	755.955872	52.054840
201.159988	745.404846	780.104309	755.287170	28.479761
201.537537	744.290344	791.249695	762.717468	39.240585
201.915070	754.989929	783.968018	765.095154	34.871952
202.292557	752.240723	779.212646	767.249939	55.647556
202.670029	753.355286	767.472839	761.305664	56.315552
203.047485	744.290283	769.850525	760.562683	63.662933
203.424911	742.729980	773.788574	765.763855	74.162643
203.802292	742.729980	777.800964	769.553223	76.482719
204.179688	738.940613	783.447937	767.992920	65.275337
204.557037	741.318298	781.070251	767.844299	66.728798
204.934357	736.488525	786.642883	767.547119	61.926014
205.311661	740.723816	781.887512	770.221985	71.660645
205.688934	734.853821	779.064148	765.986755	70.420052
206.066177	730.098572	777.503723	759.448181	61.912277
206.443390	726.309082	770.890808	760.859863	77.499870
206.820587	731.807556	764.352112	759.968262	86.529701
207.197769	741.021057	764.797913	764.649353	99.375191
207.574921	734.853943	775.200256	757.962097	57.274513
207.952042	723.931396	775.571777	759.150879	68.201439
208.329147	715.832458	773.862793	761.751526	79.129417
208.706223	748.822815	793.255859	773.342712	55.183926
209.083267	752.389343	799.794495	772.228210	41.849602
209.460297	758.407898	802.766602	764.723633	14.237871
209.837280	725.789001	784.711121	754.321228	48.423626
210.214264	728.909729	778.023743	745.330566	33.434116
210.591217	730.990234	770.296326	749.565857	47.258892
210.968124	737.974609	769.701843	742.952820	15.690654
211.345016	739.906494	774.234314	759.076599	55.844227
211.721893	734.333801	774.308655	751.943542	44.052048
212.098724	731.658875	761.825867	757.813477	86.699402
212.475555	731.213074	764.352112	750.085938	56.950546
212.852356	736.191406	768.215820	760.934143	77.262108
213.229126	740.872375	778.915466	759.076660	47.851749
213.605865	742.358459	775.125977	760.562683	55.555702
213.982590	733.888000	766.581238	757.590576	72.499931
214.359283	740.055176	761.231384	760.042542	94.385948
214.735931	732.476257	761.825745	757.590576	85.569870
215.112579	736.117004	777.355042	754.024109	43.423756
215.489197	729.132629	779.361267	750.308899	42.159752
215.865799	731.436035	777.726563	753.280945	47.190884
216.242355	737.454529	769.553284	750.531738	40.740551
216.618896	737.900330	765.020813	746.668030	32.328701
216.995407	740.055115	762.420227	747.262451	32.225800
217.371902	736.488586	764.426453	751.497742	53.723343
217.748367	732.104736	764.129150	756.030212	74.710114
218.124802	728.909668	767.695618	747.262451	47.318123
218.501236	728.612488	756.698914	748.154114	69.576767
218.877609	733.070618	759.150879	752.686584	75.213844
219.253983	733.442139	757.739197	756.253113	93.883690
219.630295	727.943665	767.770020	752.463684	61.567322
220.006592	731.138733	776.612000	745.181946	30.882349
220.382889	728.835266	775.348938	753.281006	52.556030
220.759140	729.578369	773.045593	757.590515	64.444298
221.135391	728.389587	763.386230	766.804138	109.766388
221.511581	737.454529	770.147705	757.070496	60.000187
221.887772	744.959167	774.011475	761.380066	56.521839
222.263931	743.547363	778.915466	764.649231	59.663555
222.640060	736.414307	778.023865	766.878418	73.214218
223.016159	731.733215	769.627502	766.506836	91.764809
223.392212	731.807434	767.770020	763.311829	87.603256
223.768265	734.556641	767.324219	772.302551	115.192863
224.144302	737.305908	770.221985	775.051758	114.672989
224.520294	737.528809	770.073425	769.107422	97.031754
224.896286	743.027161	768.810303	768.364441	98.270721
225.272217	737.603088	772.599792	760.042480	64.118584
225.648148	733.962219	774.160156	764.649231	76.339767
226.024048	726.011902	778.915466	761.305664	66.713394
226.399902	726.309082	781.887512	762.345886	64.839554
226.775772	725.045959	781.738953	753.949707	50.982929
227.151581	731.956055	776.834961	757.887756	57.781490
227.527374	728.538147	766.655518	762.123047	88.109169
227.903137	737.900391	761.825867	762.791748	104.037041
228.278870	741.912781	762.568848	764.797913	110.791336
228.654572	748.005554	771.187988	757.293396	40.064137
229.030273	743.844543	774.903076	762.197266	59.090755
229.405930	731.064453	774.085754	754.172607	53.713284
229.781555	726.829163	767.844299	753.801208	65.761200
230.157181	719.696106	767.027039	754.024109	72.527626
230.532761	719.250305	764.352051	751.720520	71.993256
230.908325	715.980957	772.079590	753.058044	66.092674
231.283859	726.234802	769.107422	755.212891	67.591133
231.659332	731.436035	769.776184	756.104492	64.341057
232.034821	740.055115	758.110657	756.030212	88.477531
232.410263	727.423645	765.763855	748.748535	55.620171
232.785690	735.151123	767.695740	747.708252	38.584351
233.161087	734.482422	775.571777	753.726807	46.835449
233.536469	742.730042	771.856689	761.157043	63.265095
233.911804	741.021057	777.577942	766.729736	70.325134
234.287140	733.442200	772.896912	765.838196	82.109322
234.662430	735.076843	772.228210	756.921875	58.800076
235.037704	734.036560	764.500732	753.875427	65.121964
235.412933	738.791992	771.485168	749.714355	33.408695
235.788162	732.179016	772.822693	760.562561	69.835083
236.163345	733.293640	773.342773	763.311829	74.953407
236.538513	734.854004	771.410889	771.633789	100.609734
236.913635	732.773438	770.221985	764.352112	84.325500
237.288742	726.160461	775.200378	768.364441	86.060463
237.663834	724.228699	776.537781	756.476013	61.647640
238.038879	732.847717	775.348877	758.556458	60.489502
238.413910	735.671204	776.760559	754.098328	44.846466
238.788910	740.426575	775.125977	762.940247	64.882019
239.163879	737.603027	783.224915	760.488281	50.162884
239.538834	730.247131	780.550049	755.138489	49.482929
239.913757	728.315247	779.435547	747.336731	37.209259
240.288651	731.138733	774.903015	752.092102	47.877785
240.663528	736.562805	773.639954	758.407898	58.917942
241.038361	731.138733	774.085754	763.088867	74.394295
241.413177	721.850891	773.416992	759.893860	73.775154
241.787979	715.906738	774.234375	757.739075	71.719582
242.162735	718.210144	772.302429	762.717468	82.280357
242.537476	720.810730	775.200195	754.841309	62.568329
242.912170	718.210144	773.491272	753.132324	63.171974
243.286865	722.965515	769.999023	741.987000	40.442410
243.661514	728.761047	764.797852	751.794922	63.917641
244.036148	734.631042	769.627625	755.658691	60.084866
244.410751	734.928223	773.565674	758.333557	60.576809
244.785339	725.120300	773.342773	762.568848	77.657875
245.159882	729.949951	773.491394	763.386230	76.791847
245.534378	730.990173	783.522217	769.924805	74.115967
245.908890	736.191406	790.952454	759.150879	41.926651
246.283356	727.200684	784.265198	756.178894	50.781490
246.657791	727.423645	782.184753	744.216064	30.664864
247.032196	734.333801	780.327209	755.955872	47.011238
247.406586	737.305969	782.704834	753.355286	35.351803
247.780960	731.361633	779.138367	759.076599	58.009335
248.155289	726.754883	781.887512	751.126282	44.205036
248.529602	721.330811	786.271423	754.098389	50.457760
248.903870	726.309082	782.779114	752.983826	47.236992
249.278122	724.971619	783.968018	758.928040	57.556770
249.652344	734.482361	783.893738	757.516296	46.616665
250.026550	730.618652	788.351807	754.618469	41.570251
250.400711	739.757874	787.014404	757.219055	36.949776
250.774857	740.426575	783.819336	758.110657	40.753529
251.148987	740.055115	782.556213	770.073425	70.629494
251.523071	732.030334	775.274597	768.661621	84.707855
251.897125	732.327637	788.500488	773.119812	72.619019
252.271164	729.801331	791.918396	766.135437	58.492954
252.645187	728.240967	800.314636	762.494568	47.525818
253.019165	721.405090	795.187744	760.785645	53.373730
253.393112	727.572266	799.348633	764.352112	51.242279
253.767044	731.361633	795.930725	764.872253	51.898857
254.140930	729.578430	793.627380	757.739075	43.967381
254.514801	727.126465	785.899902	758.482239	53.350246
254.888657	720.736389	788.426208	750.606140	44.127392
255.262466	724.674500	781.738953	753.726746	50.911285
255.636276	726.160461	787.608887	752.017761	42.079678
256.010010	731.956055	795.113464	757.962097	41.176552
256.383759	737.157227	798.605652	760.116882	37.364109
256.757446	739.609192	800.166016	758.927979	31.901915
257.131134	737.305908	796.153625	763.609070	44.696995
257.504791	735.596924	797.193848	760.414063	40.289574
257.878418	731.658875	797.268250	768.661621	56.398567
258.252014	727.795166	799.794495	771.708008	60.990627
258.625580	721.107910	799.794495	778.989746	73.559982
258.999115	723.782776	799.868835	765.318054	54.589867
259.372650	730.618652	795.039124	757.590515	41.868465
259.746124	735.522644	808.933777	754.098328	25.303633
260.119598	729.801331	816.215393	762.494446	37.833096
260.493042	733.590759	827.658020	769.479004	38.151684
260.866425	734.705322	827.137878	768.884583	36.977512
261.239838	731.510315	824.314270	768.067200	39.391518
261.613159	721.256531	819.707520	766.506836	45.962265
261.986511	723.114075	814.877930	764.500671	45.101196
262.359802	738.123230	817.181335	770.147705	40.507515
262.733063	738.271912	815.472351	771.039307	42.444572
263.106293	736.042786	811.682861	766.283936	39.980328
263.479523	731.510254	813.243347	765.169373	41.181751
263.852692	740.575195	809.528137	758.259216	25.646507
264.225861	737.454529	814.655090	760.562561	29.932467
264.598969	740.500977	809.008057	753.280945	18.654961
264.972076	731.584656	815.175232	755.584290	28.710932
265.345154	732.550476	817.404297	760.636902	33.099777
265.718201	727.274963	818.815918	758.110657	33.685135
266.091217	737.528809	825.949036	762.568848	28.319357
266.464203	741.095276	830.110046	762.048767	23.539343
266.837158	733.590759	832.339050	771.039368	37.923298
267.210114	723.559875	829.292664	758.407898	32.958576
267.583038	722.519714	821.342285	768.810242	46.842060
267.955902	730.470032	824.834473	766.358215	38.031471
268.328766	731.138855	823.274109	770.890808	43.145214
268.701569	734.928223	830.630127	765.020813	31.444088
269.074371	737.008728	832.041931	763.683350	28.068739
269.447144	741.318176	837.837463	769.850525	29.561293
269.819885	739.832214	847.794006	766.729797	24.913984
270.192596	734.631042	849.577332	773.565674	33.872021
270.565277	739.832214	855.595764	775.051697	30.423637
270.937927	737.900208	853.961182	777.355042	33.994919
271.310577	737.974609	863.992004	769.256042	24.823107
271.683136	735.968445	863.620422	763.237549	21.362070
272.055725	724.525818	877.589355	757.144775	21.310730
272.428284	729.652771	889.626465	765.986816	22.712513
272.800812	739.312073	895.199219	763.980530	15.824561
273.173279	753.652527	893.341614	766.729797	9.361698
273.545776	751.572021	885.316895	761.305664	7.277769
273.918152	736.785828	887.991882	773.268372	24.127701
274.290558	731.956116	880.190002	770.816467	26.215565
274.662964	730.395752	876.549133	768.215820	25.876970
275.035278	731.510315	877.812317	762.866028	21.432182
275.407593	729.950012	879.521301	762.717468	21.907583
275.779907	737.231628	885.688477	761.082764	16.066040
276.152161	738.049011	883.830872	753.132324	10.346495
276.524384	742.507141	889.552185	761.008484	12.582092
276.896606	730.618652	889.329285	758.556458	17.602983
277.268799	725.194519	889.849365	756.476013	18.998222
277.640930	718.061462	901.514954	754.544128	19.886602
278.013031	720.216309	912.883301	753.206726	17.123026
278.385162	723.931396	920.759338	758.556458	17.591537
278.757233	727.795166	916.375488	751.943542	12.805353
279.129272	725.268860	912.511719	752.017822	14.285705
279.501282	725.640442	916.895508	758.630676	17.249338
279.873230	722.296692	920.907898	757.516296	17.732939
280.245178	722.371094	927.149353	767.621399	22.097221
280.617126	726.903503	938.443359	760.414063	15.841250
280.988983	737.603088	945.279236	758.333557	9.982114
281.360870	748.154053	958.430847	746.519470	-0.777348
281.732697	747.039551	971.359436	743.250183	-1.689270
282.104492	746.816650	984.288147	747.113831	0.125144
282.476288	742.432800	986.145691	758.482117	6.585338
282.848053	738.271912	991.792786	763.311829	9.876866
283.219757	736.637207	999.371582	765.169434	10.859723
283.591461	735.448425	1004.424133	766.506836	11.546921
283.963135	734.036621	1000.634705	764.575012	11.454843
284.334747	730.618652	1007.024719	774.085754	15.725813
284.706360	733.962341	1021.811035	766.655457	11.357743
285.077942	738.197510	1034.368164	772.451111	11.565495
285.449524	736.785828	1040.015259	764.426453	9.115417
285.821014	736.785828	1047.073853	764.500671	8.931973
286.192535	740.278015	1058.888062	760.042480	6.203340
286.563995	743.770264	1065.055176	757.664856	4.324695
286.935425	736.265686	1069.439087	761.305664	7.515599
287.306824	735.076843	1064.312134	768.810242	10.245985
287.678223	730.172852	1065.575317	767.324219	11.076653
288.049561	726.977844	1063.717773	774.160095	14.011481
288.420898	721.776672	1065.278198	775.125977	15.531024
288.792145	728.686829	1067.804321	776.389160	14.066609
289.163452	738.569031	1068.621704	773.714172	10.648343
289.534668	729.504150	1076.275024	766.283936	10.606365
289.905914	723.857117	1090.243774	768.884521	12.289586
290.277039	716.426941	1115.952515	769.181824	13.204382
290.648193	727.349365	1135.196899	772.748352	11.131362
291.019318	735.225403	1150.874756	774.457336	9.438709
291.390381	731.584534	1153.401001	773.788574	10.005309
291.761475	727.497864	1157.487671	778.766846	11.923302
292.132507	721.405090	1147.754028	775.423157	12.669919
292.503510	730.098572	1143.890503	769.107483	9.427180
292.874481	738.569031	1145.450806	771.782410	8.162907
293.245422	736.488586	1145.079224	779.435547	10.511000
293.616364	735.448303	1150.429077	779.435547	10.599827
293.987213	725.045898	1164.175049	772.748230	10.862939
294.358093	726.234802	1189.289429	773.119812	10.125157
294.728943	727.423645	1212.992065	779.509766	10.726834
295.099731	728.538147	1231.121826	772.079529	8.663509
295.470490	731.435974	1243.307495	768.067200	7.156332
295.841248	724.748779	1259.356812	758.630859	6.337742
296.211975	725.863281	1269.907837	758.853699	6.063918
296.582642	719.398926	1292.941650	758.333557	6.788445
296.953308	719.993347	1321.845337	763.683350	7.259260
297.323883	725.714661	1338.489380	766.581238	6.669103
297.694519	725.714661	1352.904053	767.101318	6.598750
298.065063	733.665039	1352.458130	766.506836	5.307395
298.435608	726.977844	1351.863647	765.318054	6.135555
298.806122	733.590759	1329.572876	758.927979	4.251339
299.176575	731.658875	1305.721802	764.649353	5.746840
299.547028	732.773376	1285.734253	767.175537	6.221446
299.917450	734.036621	1284.173950	762.717468	5.213398
300.287872	734.333801	1278.675537	753.503906	3.521704
300.658234	739.386414	1277.783813	748.079773	1.614673
301.028564	727.349304	1273.845825	758.259277	5.656024
301.398865	722.296814	1280.235840	765.243713	7.697418
301.769135	720.290588	1286.477295	768.587402	8.530192
302.139374	731.064453	1286.180054	768.810242	6.799627
302.509583	732.030457	1279.344238	765.169434	6.054841
302.879791	735.002502	1280.533081	772.971252	6.959967
303.249939	728.686829	1287.369019	769.627625	7.328101
303.620087	734.556702	1289.078003	773.268372	6.981097
303.990173	728.612488	1289.375122	768.215820	7.062406
304.360260	732.922058	1287.814819	769.330322	6.561316
304.730286	725.343079	1291.009766	773.788513	8.564307
305.100281	724.822998	1305.201538	773.565613	8.398417
305.470276	723.931335	1309.511108	774.382874	8.615656
305.840179	730.024231	1325.932007	764.426453	5.773078
306.210144	730.990234	1327.417969	767.101318	6.054562
306.579987	729.875671	1335.294067	770.890808	6.774676
306.949890	730.470032	1344.804810	774.903076	7.232708
307.319702	739.534973	1354.315796	774.903137	5.752971
307.689484	733.888000	1367.615845	765.243713	4.947820
308.059265	740.723816	1384.631226	769.330383	4.442652
308.429016	738.866211	1411.157227	770.890808	4.763502
308.798737	744.141785	1441.101196	770.667908	3.805978
309.168396	736.339905	1464.878296	763.683350	3.753192
309.538055	732.030457	1477.732544	758.110657	3.497402
309.907684	731.510315	1496.605469	762.791748	4.088568
310.277313	733.144958	1502.326660	761.380066	3.670798
310.646851	737.603088	1507.007813	762.420227	3.225499
311.016388	739.609314	1514.586548	765.095215	3.288600
311.385895	738.197510	1523.057129	770.742188	4.146560
311.755371	734.408142	1534.574097	774.382996	4.995821
312.124817	736.339905	1533.608032	776.686340	5.060585
312.494232	733.887939	1535.540039	776.612061	5.329509
312.863617	730.172852	1531.750610	773.194153	5.367078
313.232971	720.662109	1521.199585	768.884583	6.023762
313.602295	720.067688	1518.524780	771.559509	6.448915
313.971619	720.067688	1534.722656	774.977356	6.740236
314.340820	721.702332	1544.902222	774.605896	6.426576
314.710083	719.770508	1562.660522	769.330383	5.879756
315.079285	718.804504	1563.849487	764.277832	5.381173
315.448486	724.748779	1585.694336	765.466614	4.729432
315.817596	727.052063	1582.053589	768.215820	4.814466
316.186707	731.287415	1573.731812	767.992920	4.357024
316.555786	731.807556	1546.908203	771.336609	4.849592
316.924866	732.847717	1531.230469	766.952698	4.271758
317.293884	735.819824	1529.521484	766.878418	3.913132
317.662872	734.259460	1542.078735	762.643127	3.513616
318.031830	736.934387	1548.468750	763.683411	3.296105
318.400757	735.522644	1553.892700	775.051758	4.830225
318.769684	734.482422	1564.443726	777.206482	5.147717
319.138550	724.525818	1577.075195	775.497498	5.978736
319.507416	716.278259	1599.366089	762.568848	5.241901
319.876190	720.662109	1605.013062	756.476013	4.049739
320.244995	734.408142	1605.235962	763.163269	3.302045
320.613770	737.380188	1582.870972	772.896973	4.200730
320.982483	738.197510	1565.484009	780.178528	5.074544
321.351166	732.921936	1557.087891	773.862854	4.967557
321.719818	738.420410	1548.320190	772.822571	4.247706
322.088440	736.339905	1559.465454	771.262207	4.242646
322.457062	735.225403	1573.731567	771.633728	4.342046
322.825623	736.339905	1601.817993	771.782410	4.095136
323.194183	733.367859	1620.913940	767.472839	3.842615
323.562653	734.259521	1658.065308	768.067200	3.659609
323.931183	726.532043	1690.758423	761.751526	3.652616
324.299591	725.120300	1739.055176	774.754578	4.895214
324.668060	721.776611	1760.974609	774.903137	5.112262
325.036407	717.541321	1786.980469	776.983582	5.558265
