Jaz Data File
++++++++++++++++++++++++++++++++++++
Date: Fri Jun 04 16:50:36 2021
User: jaz
Dark Spectrum Present: Yes
Reference Spectrum Present: Yes
Processed Spectrum Present: Yes
Spectrometers: JAZA3586
Integration Time (usec): 24900 (JAZA3586)
Spectra Averaged: 10 (JAZA3586)
Boxcar Smoothing: 1 (JAZA3586)
Correct for Electrical Dark: No (JAZA3586)
Strobe/Lamp Enabled: Yes (JAZA3586)
Correct for Detector Non-linearity: No (JAZA3586)
Correct for Stray Light: No (JAZA3586)
Number of Pixels in Processed Spectrum: 2048
>>>>>Begin Processed Spectral Data<<<<<
W	D	R	S	P
191.335022	0.000000	0.000000	0.000000	0.000000
191.713211	231.155762	234.127869	233.161911	67.499229
192.091385	464.763519	467.438385	470.336182	208.334290
192.469528	701.492004	705.652893	706.470215	119.642960
192.847641	713.603333	712.860291	717.912903	-579.990173
193.225739	723.857117	731.064453	722.296692	-21.650505
193.603790	734.482422	738.271790	734.259460	-5.883869
193.981842	733.739441	737.900330	734.110901	8.927419
194.359863	736.117004	734.185120	738.197510	-107.693039
194.737854	737.974609	738.123230	734.110901	-2599.712646
195.115829	740.500916	744.736145	740.203674	-7.018302
195.493774	744.141785	746.147949	741.541199	-129.629745
195.871704	743.472961	746.593750	748.005554	145.238693
196.249603	746.445068	755.361511	741.392578	-56.664864
196.627457	747.188171	758.556458	750.085938	25.489912
197.005310	747.188171	764.203430	754.469910	42.795341
197.383133	750.606140	760.339783	758.630859	82.443123
197.760910	754.246887	757.293274	750.383240	-126.827217
198.138687	752.909485	756.327393	741.243958	-341.306091
198.516449	751.943542	754.989990	742.655762	-304.872467
198.894180	745.330566	752.612305	745.107666	-3.061088
199.271866	748.154053	751.572083	746.519470	-47.822361
199.649536	744.736145	746.816650	742.358459	-114.284035
200.027191	745.553467	751.051941	744.438965	-20.269295
200.404816	740.500916	744.364685	744.290344	98.075951
200.782410	742.432800	759.448059	744.438965	11.790385
201.159988	746.370850	763.311829	732.179016	-83.772217
201.537537	747.931152	776.314880	735.002441	-45.549728
201.915070	745.999268	771.559509	734.631042	-44.476204
202.292557	737.008606	778.320984	743.770264	16.367147
202.670029	728.835388	777.726563	735.299805	13.222052
203.047485	720.885010	782.333313	735.374023	23.579193
203.424911	718.358704	770.667786	729.206848	20.738548
203.802292	723.188416	771.633789	733.665039	21.625643
204.179688	728.538147	771.930969	731.435974	6.678125
204.557037	728.835388	782.556335	735.151123	11.756559
204.934357	735.374023	782.704895	738.420410	6.436363
205.311661	737.603088	775.571777	737.083008	-1.369762
205.688934	741.912659	776.091980	727.943787	-40.869366
206.066177	736.191406	769.999084	719.770447	-48.571686
206.443390	740.278015	775.051758	728.835449	-32.905766
206.820587	744.216064	767.101318	734.631042	-41.882961
207.197769	743.101501	768.810242	737.157410	-23.120899
207.574921	737.751709	772.302429	726.160583	-33.548145
207.952042	727.052185	774.159973	721.553711	-11.672112
208.329147	726.309082	773.045471	723.485596	-6.041302
208.706223	732.179016	770.073425	740.426575	21.764580
209.083267	734.036621	768.364441	744.810547	31.385406
209.460297	734.333801	767.992920	739.609314	15.673353
209.837280	723.485596	767.398499	726.086182	5.922145
210.214264	726.457703	769.479004	722.816895	-8.462803
210.591217	725.640381	767.101318	725.937683	0.717066
210.968124	722.668274	765.912415	726.532043	8.934782
211.345016	723.188416	764.054871	728.761047	13.636201
211.721893	720.662109	770.370605	732.476257	23.766859
212.098724	717.095520	765.986755	734.259460	35.106377
212.475555	702.383606	762.048767	740.500916	63.885372
212.852356	708.773682	761.974426	740.055115	58.798862
213.229126	711.448547	765.838135	743.175781	58.333286
213.605865	725.417480	768.661621	736.414246	25.429491
213.982590	719.027527	761.602844	733.442200	33.856876
214.359283	722.445313	756.104492	722.742615	0.883272
214.735931	720.141907	760.785583	726.234863	14.991155
215.112579	718.284363	756.104492	724.154297	15.520661
215.489197	719.324646	761.825867	731.064453	27.622282
215.865799	714.049133	760.934143	725.268860	23.930307
216.242355	717.541321	764.203430	729.949951	26.592520
216.618896	722.816895	761.751465	731.510254	22.328125
216.995407	731.733215	762.866028	732.476257	2.386684
217.371902	732.104675	764.277832	723.188293	-27.713730
217.748367	733.219238	768.736023	720.587708	-35.564960
218.124802	732.104675	763.683350	730.990173	-3.529287
218.501236	736.934387	768.067200	734.333801	-8.353200
218.877609	731.510315	760.265442	732.030457	1.808866
219.253983	727.572266	757.516174	718.804504	-29.280617
219.630295	726.309082	750.829041	718.730225	-30.908932
220.006592	721.479431	749.342957	723.411316	6.933383
220.382889	720.142029	754.395508	726.531982	18.654903
220.759140	717.095520	761.751465	727.572266	23.461033
221.135391	717.764343	770.816406	727.275085	17.927187
221.511581	717.689941	775.497498	732.476257	25.578518
221.887772	714.420654	770.890808	730.172852	27.894732
222.263931	711.522888	761.454285	733.516418	44.047497
222.640060	704.984192	756.253113	730.098572	48.985584
223.016159	706.470276	760.785583	735.596924	53.625118
223.392212	709.145203	769.627625	732.401917	38.452023
223.768265	723.188416	774.457275	737.008606	26.956305
224.144302	723.485596	775.200378	738.048889	28.160793
224.520294	731.881836	767.918640	729.132568	-7.629055
224.896286	728.389648	763.757751	725.343079	-8.613891
225.272217	728.315247	766.135315	725.714661	-6.876206
225.648148	724.525818	769.701843	730.841553	13.980280
226.024048	722.593933	772.599609	726.309082	7.429454
226.399902	718.953125	775.943359	720.587830	2.868394
226.775772	723.857178	779.064026	719.324707	-8.209979
227.151581	729.206970	777.726563	723.336975	-12.098195
227.527374	734.036621	776.983582	725.640320	-19.550398
227.903137	730.395752	775.794739	734.779541	9.656138
228.278870	730.990234	779.807129	738.569031	15.524946
228.654572	736.042786	772.302490	735.596924	-1.229634
229.030273	733.590759	765.912415	729.801331	-11.724117
229.405930	723.782776	759.893982	729.504089	15.843596
229.781555	724.674500	762.048767	731.733215	18.886566
230.157181	724.302917	765.838135	732.699219	20.214897
230.532761	731.658875	771.262207	730.395752	-3.189435
230.908325	720.885010	776.983582	726.977844	10.860944
231.283859	720.736389	776.091980	724.971680	7.651062
231.659332	713.603333	773.862793	718.878845	8.754663
232.034821	725.120300	770.816406	720.885010	-9.268384
232.410263	722.668274	767.770020	717.838623	-10.708345
232.785690	729.875671	768.438721	724.674500	-13.487450
233.161087	724.228577	761.157043	724.525879	0.805076
233.536469	720.736328	767.472839	719.398926	-2.861579
233.911804	716.501160	763.163269	721.553711	10.827953
234.287140	719.621826	766.878418	727.052063	15.723175
234.662430	724.377258	766.655457	738.197571	32.688980
235.037704	723.485596	770.890625	728.835449	11.285414
235.412933	719.324646	778.023743	720.736389	2.405051
235.788162	718.210144	773.268372	713.826172	-7.962429
236.163345	720.142029	767.027039	713.603333	-13.946240
236.538513	718.953125	764.054932	719.101746	0.329523
236.913635	721.256531	774.903076	724.377258	5.817201
237.288742	723.931458	778.172363	734.408020	19.314875
237.663834	724.748779	776.017578	731.435852	13.043162
238.038879	730.024231	771.410889	724.154297	-14.183156
238.413910	727.646545	774.754456	722.965515	-9.936824
238.788910	733.145020	777.800842	730.767273	-5.324606
239.163879	730.692932	778.692444	738.866272	17.027964
239.538834	735.002502	776.166199	741.541199	15.884619
239.913757	728.092346	775.200256	734.556702	13.722442
240.288651	729.578430	777.057861	732.030457	5.164397
240.663528	723.337097	777.726563	722.073914	-2.322479
241.038361	729.578430	778.915466	718.730225	-21.987955
241.413177	728.984070	784.190918	728.240967	-1.346034
241.787979	732.327637	787.608887	734.779602	4.435438
242.162735	732.699219	789.243469	740.352356	13.534775
242.537476	731.881775	785.156921	732.104675	0.418395
242.912170	731.807556	787.237305	727.943787	-6.970570
243.286865	727.869446	788.054688	720.810730	-11.728317
243.661514	726.532043	789.689270	717.244141	-14.706001
244.036148	730.024231	789.317810	711.522766	-31.203150
244.410751	730.767273	788.128906	719.176086	-20.207211
244.785339	733.516418	786.419983	723.411316	-19.100986
245.159882	724.823059	798.977234	731.436035	8.917874
245.534378	722.222412	799.348694	732.550476	13.391109
245.908890	715.758057	795.782166	728.909668	16.434561
246.283356	716.724060	782.407654	728.686768	18.212626
246.657791	721.553711	782.779114	727.275085	9.344772
247.032196	730.024231	790.357971	734.631042	7.635548
247.406586	734.928223	803.509583	735.522644	0.866739
247.780960	726.383362	808.710754	733.962219	9.205754
248.155289	717.987122	818.444519	731.807556	13.757508
248.529602	717.689941	815.620911	733.888000	16.540283
248.903870	725.268860	823.794250	739.089172	14.027159
249.278122	727.869446	818.370178	735.299744	8.210207
249.652344	716.501160	814.655029	730.767273	14.534438
250.026550	713.008972	800.983337	724.600098	13.175571
250.400711	707.659180	798.679932	718.433044	11.836713
250.774857	721.033630	795.187744	714.792175	-8.416869
251.148987	722.445374	795.633484	717.912903	-6.192906
251.523071	726.383362	799.274414	724.897278	-2.038774
251.897125	723.262695	804.475586	727.869446	5.672438
252.271164	727.200745	806.704651	719.993408	-9.065387
252.645187	728.909668	806.778992	714.866516	-18.034254
253.019165	729.578430	810.122620	717.095642	-15.498061
253.393112	724.600098	812.277344	726.011963	1.610298
253.767044	723.336975	809.899719	726.903503	4.120165
254.140930	725.045959	806.704590	730.470032	6.642375
254.514801	726.309082	810.122559	725.640381	-0.797844
254.888657	735.374023	814.060608	722.742615	-16.052811
255.262466	731.361633	814.952209	716.203918	-18.133282
255.636276	734.408142	813.911926	721.776672	-15.887885
256.010010	727.943787	813.837708	730.767334	3.287249
256.383759	733.144958	821.565186	732.030457	-1.260460
256.757446	724.600159	823.645691	731.138855	6.601707
257.131134	723.114075	827.360840	736.042725	12.401967
257.504791	724.005676	835.162598	749.120056	22.593626
257.878418	723.857117	840.140808	745.627747	18.721998
258.252014	718.804504	848.388428	737.157227	14.162807
258.625580	711.448547	856.561768	728.538147	11.776735
258.999115	716.724060	875.731750	729.578369	8.084080
259.372650	717.318542	890.666748	733.739319	9.472713
259.746124	723.708496	902.480896	732.104675	4.696575
260.119598	733.516418	926.257751	739.832214	3.276825
260.493042	737.900208	938.666321	741.318176	1.702463
260.866425	730.172852	952.783752	742.135559	5.373819
261.239838	711.448547	941.266907	739.312073	12.124151
261.613159	713.528992	925.886230	732.476257	8.922355
261.986511	715.386536	899.285828	731.287415	8.646515
262.359802	725.491699	881.824707	728.761169	2.091350
262.733063	731.584534	879.446960	734.259521	1.809106
263.106293	734.408142	883.087830	741.615479	4.847559
263.479523	732.104736	890.740967	747.708313	9.836074
263.852692	721.702332	889.997986	749.045715	16.247231
264.225861	724.005676	890.815247	742.209961	10.913214
264.598969	728.612488	893.044434	737.305908	5.286941
264.972076	734.482422	900.325989	728.686829	-3.494614
265.345154	734.333801	894.604736	727.126465	-4.496970
265.718201	729.281189	896.016541	720.364929	-5.347552
266.091217	732.699158	898.691406	724.154358	-5.147710
266.464203	733.144958	918.976074	730.172852	-1.599359
266.837158	735.671204	926.109131	734.036621	-0.858328
267.210114	726.011780	929.155579	733.516418	3.694249
267.583038	720.959290	928.263977	736.711487	7.598573
267.955902	718.953125	932.350586	736.042786	8.008371
268.328766	715.015137	941.787048	736.488586	9.469184
268.701569	712.414551	941.341125	724.674500	5.355407
269.074371	713.751953	946.839600	723.708496	4.271587
269.447144	720.884949	951.594971	728.983948	3.510467
269.819885	722.445313	966.529785	732.104675	3.957385
270.192596	725.863281	979.384094	727.869446	0.791321
270.565277	721.627991	996.622375	729.875671	2.999218
270.937927	723.039795	1007.544861	733.219238	3.577948
271.310577	710.854065	1030.801636	737.454590	8.314026
271.683136	714.494934	1047.891235	730.395752	4.769344
272.055725	711.299988	1081.550415	726.309082	4.053768
272.428284	717.392761	1092.695801	727.200745	2.613350
272.800812	719.250305	1101.389160	731.733215	3.266590
273.173279	723.931396	1073.228516	735.076843	3.190821
273.545776	728.389587	1071.445190	739.014832	3.097237
273.918152	724.302917	1064.906616	738.346191	4.123054
274.290558	725.268860	1075.606079	732.996338	2.205726
274.662964	724.302917	1056.213135	727.943787	1.096944
275.035278	729.801270	1054.578491	725.045898	-1.464195
275.407593	725.714661	1056.064575	734.779602	2.744042
275.779907	725.863281	1070.850708	738.866272	3.769120
276.152161	723.411316	1079.395630	735.002502	3.256095
276.524384	726.977844	1103.098145	732.104736	1.363099
276.896606	722.891113	1111.717285	729.429871	1.681666
277.268799	719.919128	1122.639771	731.584656	2.896680
277.640930	721.776672	1119.370483	723.411316	0.411134
278.013031	724.971680	1133.488037	723.782776	-0.291030
278.385162	726.309082	1127.246582	720.810730	-1.371374
278.757233	725.789001	1133.710938	725.194519	-0.145734
279.129272	726.829163	1127.618042	727.795166	0.241026
279.501282	723.559875	1138.020386	726.309082	0.663322
279.873230	729.058289	1142.850098	723.857117	-1.256954
280.245178	722.668274	1156.670532	726.977844	0.992983
280.617126	728.166687	1174.205933	739.683594	2.582039
280.988983	714.420593	1199.617432	741.095398	5.497728
281.360870	717.615662	1234.762695	737.528809	3.850577
281.732697	718.953125	1270.947876	728.166687	1.669139
282.104492	728.538269	1296.731079	728.909668	0.065365
282.476288	728.389465	1313.449097	725.343079	-0.520697
282.848053	724.748718	1322.662598	726.606262	0.310671
283.219757	717.318420	1323.480103	727.646545	1.703856
283.591461	719.324707	1321.250977	736.340027	2.826811
283.963135	723.262695	1319.318970	737.825989	2.443275
284.334747	723.114075	1329.349976	736.414307	2.193904
284.706360	723.188293	1350.154663	728.538269	0.853311
285.077942	724.971619	1370.588013	732.253357	1.127874
285.449524	731.881836	1402.315063	731.213074	-0.099751
285.821014	732.030457	1420.519409	730.544373	-0.215847
286.192535	727.646545	1451.355103	727.720886	0.010272
286.563995	726.383484	1465.472656	729.578369	0.432273
286.935425	722.965515	1486.871704	738.569031	2.042596
287.306824	719.770508	1484.791382	740.278015	2.680647
287.678223	726.680664	1477.806763	748.005554	2.839056
288.049561	733.739441	1457.076294	741.392578	1.058032
288.420898	730.024231	1444.667847	743.547302	1.892282
288.792145	724.748718	1441.770020	734.705322	1.388606
289.163452	721.107910	1448.457153	730.618652	1.307590
289.534668	726.011902	1472.605591	719.473206	-0.875804
289.905914	726.680603	1497.348267	723.411316	-0.424215
290.277039	725.045898	1535.094238	729.727051	0.577886
290.648193	731.584656	1572.914429	738.494812	0.821337
291.019318	732.699158	1598.028687	734.036621	0.154561
291.390381	730.544373	1617.570313	724.451477	-0.686890
291.761475	727.126465	1609.471313	723.411316	-0.421054
292.132507	714.123474	1606.127808	726.680664	1.407750
292.503510	712.265930	1582.573730	734.408142	2.544182
292.874481	714.346375	1570.239380	743.547363	3.411757
293.245422	715.386536	1574.326050	740.426575	2.915227
293.616364	723.485596	1596.022461	744.290344	2.384398
293.987213	713.380432	1635.254395	731.584656	1.974698
294.358093	716.724060	1671.291138	730.841553	1.478942
294.728943	715.163635	1716.913086	726.234802	1.105183
295.099731	720.216309	1765.358398	728.761047	0.817567
295.470490	720.736328	1793.147827	731.436035	0.997724
295.841248	720.885010	1824.354858	734.631042	1.245710
296.211975	731.287354	1840.106934	734.482422	0.288150
296.582642	735.076843	1885.803101	731.361633	-0.322858
296.953308	736.860107	1931.127808	731.956116	-0.410628
297.323883	734.853943	1979.498657	734.928223	0.005968
297.694519	733.070618	2011.597656	735.522644	0.191785
298.065063	733.070618	2009.739868	731.733154	-0.104762
298.435608	727.497986	1988.563843	731.881836	0.347631
298.806122	726.977844	1931.573608	733.219238	0.518132
299.176575	730.692871	1875.029175	732.550537	0.162336
299.547028	733.962219	1836.837524	728.389587	-0.505282
299.917450	734.928223	1825.692261	729.652649	-0.483659
300.287872	726.160461	1823.165894	730.321472	0.379306
300.658234	728.240967	1817.295898	730.544373	0.211505
301.028564	732.847717	1812.317749	726.457703	-0.591959
301.398865	737.825989	1815.586914	726.011902	-1.096169
301.769135	729.504089	1809.791382	717.912903	-1.072973
302.139374	722.148132	1811.500366	719.398926	-0.252371
302.509583	712.488770	1810.088501	716.203918	0.338479
302.879791	711.076965	1809.940063	727.720886	1.514649
303.249939	707.733398	1799.983398	732.996277	2.312921
303.620087	717.838562	1789.209595	736.711426	1.761562
303.990173	721.330811	1775.760742	730.990173	0.916074
304.360260	720.290527	1785.123047	724.079895	0.355865
304.730286	722.668274	1782.819702	723.336914	0.063070
305.100281	722.519592	1798.125977	721.850891	-0.062170
305.470276	735.968445	1800.875000	731.213074	-0.446553
305.840179	731.361633	1820.119507	731.658875	0.027301
306.210144	726.829285	1836.540405	735.299744	0.763303
306.579987	720.290588	1852.663940	731.435974	0.984250
306.949890	712.934631	1870.868164	734.928223	1.899383
307.319702	725.491760	1886.323120	739.237793	1.184154
307.689484	729.652771	1911.660278	736.488525	0.578317
308.059265	737.825989	1935.288696	737.305908	-0.043432
308.429016	727.349365	1967.907593	738.717590	0.916380
308.798737	723.411316	2000.526489	745.107727	1.698861
309.168396	723.634277	2049.046143	742.209900	1.401498
309.538055	726.011902	2088.575195	738.123230	0.888864
309.907684	725.863281	2122.308594	739.683594	0.989678
310.277313	723.039795	2149.428955	737.231628	0.994948
310.646851	727.275085	2172.017334	739.237793	0.828017
311.016388	728.686829	2186.134766	738.271790	0.657654
311.385895	724.525879	2176.549561	738.420410	0.956908
311.755371	727.646484	2178.778809	728.538269	0.061454
312.124817	731.584534	2176.772461	724.005798	-0.524412
312.494232	733.144958	2178.852783	723.559875	-0.663003
312.863617	733.813660	2163.398193	728.538269	-0.369016
313.232971	732.104675	2149.800781	727.572266	-0.319703
313.602295	741.095398	2141.627441	731.064453	-0.716224
313.971619	738.271790	2153.441406	731.584656	-0.472532
314.340820	737.677429	2161.763428	737.528809	-0.010436
314.710083	722.742615	2190.369873	744.884766	1.508704
315.079285	716.649719	2216.450195	747.039551	2.026258
315.448486	716.278259	2255.013428	741.095398	1.612827
315.817596	725.268860	2255.756348	734.853821	0.626268
316.186707	730.544373	2227.892822	733.070618	0.168715
316.555786	729.652649	2188.066650	726.011902	-0.249637
316.924866	726.309082	2146.605469	725.417480	-0.062776
317.293884	714.717834	2128.772949	724.154297	0.667333
317.662872	712.488770	2122.754395	734.333801	1.549001
318.031830	715.609558	2140.735596	731.435974	1.110528
318.400757	726.309082	2149.280518	724.748718	-0.109655
318.769684	727.720764	2160.277344	718.878845	-0.617213
319.138550	721.999512	2182.791016	716.501160	-0.376395
319.507416	717.764343	2212.511963	723.559875	0.387726
319.876190	715.163635	2229.675781	723.114075	0.524951
320.244995	722.891113	2222.022949	725.937561	0.203214
320.613770	725.640320	2197.800293	730.915833	0.358352
320.982483	736.042786	2178.630127	735.076843	-0.066959
321.351166	735.745544	2161.391846	734.556702	-0.083390
321.719818	732.847717	2159.682861	735.894104	0.213507
322.088440	725.491760	2157.082275	728.315247	0.197227
322.457062	721.479492	2179.893066	730.321472	0.606274
322.825623	721.256531	2214.740967	723.857117	0.174129
323.194183	714.569336	2254.790283	733.219299	1.210863
323.562653	712.340271	2298.183105	732.327637	1.260362
323.931183	710.705566	2351.978271	736.562805	1.575438
324.299591	715.981018	2422.343018	735.522644	1.145222
324.668060	720.662109	2479.556396	732.624817	0.680127
325.036407	725.268799	2521.908936	734.928223	0.537638
