Jaz Data File
++++++++++++++++++++++++++++++++++++
Date: Fri Jun 04 16:18:40 2021
User: jaz
Dark Spectrum Present: Yes
Reference Spectrum Present: Yes
Processed Spectrum Present: Yes
Spectrometers: JAZA3586
Integration Time (usec): 40000 (JAZA3586)
Spectra Averaged: 10 (JAZA3586)
Boxcar Smoothing: 1 (JAZA3586)
Correct for Electrical Dark: No (JAZA3586)
Strobe/Lamp Enabled: Yes (JAZA3586)
Correct for Detector Non-linearity: No (JAZA3586)
Correct for Stray Light: No (JAZA3586)
Number of Pixels in Processed Spectrum: 2048
>>>>>Begin Processed Spectral Data<<<<<
W	D	R	S	P
191.335022	0.000000	0.000000	0.000000	0.000000
191.713211	302.709259	311.922791	303.823822	12.097023
192.091385	614.260559	623.697021	605.269958	-95.275116
192.469528	925.737549	936.511475	917.489990	-76.551102
192.847641	941.043945	939.334961	927.966736	765.203552
193.225739	943.644531	952.486572	942.827332	-9.242207
193.603790	944.016113	964.152100	945.650696	8.117718
193.981842	948.622864	970.021973	955.904480	34.027660
194.359863	958.876648	966.455505	960.436951	20.587572
194.737854	973.662903	971.953857	969.650452	234.777328
195.115829	975.297607	974.554504	966.678406	1159.893188
195.493774	979.532715	978.195313	972.251038	544.464233
195.871704	981.613220	970.690735	972.771301	80.951530
196.249603	985.922791	974.554504	976.337830	84.313156
196.627457	980.721680	972.399658	969.724854	132.141281
197.005310	977.675293	975.000305	964.895081	477.767120
197.383133	973.142761	974.108704	960.659851	-1292.303833
197.760910	981.613220	970.913757	957.019043	229.863663
198.138687	975.669006	967.867249	955.458679	259.048370
198.516449	972.771179	966.158203	953.601135	289.885284
198.894180	962.220215	971.582336	955.978821	-66.666451
199.271866	966.083984	966.381104	949.514465	-5576.725586
199.649536	964.152161	962.591736	953.378174	690.452148
200.027191	959.545410	962.071594	952.263672	-288.250488
200.404816	956.053040	967.272888	958.430725	21.191780
200.782410	950.777649	981.687683	962.666016	38.461189
201.159988	955.755920	997.811279	969.353271	32.332031
201.537537	953.303955	1012.523193	981.910400	48.306000
201.915070	964.523621	1007.321960	976.114746	27.083120
202.292557	958.282227	998.182678	987.408875	72.998291
202.670029	960.659912	993.501648	980.127197	59.276054
203.047485	948.771484	991.049622	986.220032	88.576622
203.424911	953.303955	989.563660	977.823792	67.622826
203.802292	955.904541	989.340637	987.854675	95.555817
204.179688	961.254333	992.015625	988.374817	88.164322
204.557037	959.768250	994.764832	985.476990	73.460716
204.934357	958.653748	996.176575	975.074646	43.762424
205.311661	961.848694	999.074402	975.966248	37.924206
205.688934	962.294617	996.993958	970.021973	22.269461
206.066177	960.362732	998.405701	971.359436	28.906010
206.443390	955.681641	1001.600647	964.820801	19.902782
206.820587	951.743591	1001.600647	975.669006	47.988022
207.197769	950.331848	991.272644	971.582336	51.905411
207.574921	950.480286	994.319031	974.628723	55.084690
207.952042	943.793152	992.387024	967.867188	49.541298
208.329147	939.112061	993.353027	967.570007	52.465782
208.706223	954.492676	992.535706	977.080750	59.375065
209.083267	968.535889	993.724609	977.006409	33.628227
209.460297	972.102356	994.021790	981.390320	42.373192
209.837280	954.715576	986.740051	967.867249	41.067566
210.214264	943.644531	987.334473	965.861084	50.850498
210.591217	945.204895	989.563660	962.220215	38.358418
210.968124	945.873596	985.402649	957.390564	29.135450
211.345016	956.870422	987.260254	962.071594	17.114843
211.721893	954.938660	991.495605	960.362610	14.836989
212.098724	953.824036	997.439758	971.879578	41.396866
212.475555	952.560852	995.210632	965.489563	30.313663
212.852356	950.480408	987.928955	972.176758	57.936428
213.229126	952.858093	983.990906	962.666016	31.503490
213.605865	942.678528	983.247864	956.647522	34.432396
213.982590	943.124451	986.219971	944.907715	4.137934
214.359283	946.319519	983.247864	943.273132	-8.249454
214.735931	942.381409	982.727783	949.737366	18.232016
215.112579	937.700378	985.105469	955.087219	36.677158
215.489197	934.876770	988.895020	956.870422	40.715225
215.865799	950.108887	995.507813	958.876648	19.312706
216.242355	955.755859	994.913391	960.957092	13.282842
216.618896	955.012878	990.455261	961.551514	18.448633
216.995407	939.557922	978.715393	968.015808	72.675499
217.371902	937.105957	977.898132	965.117981	68.670090
217.748367	939.409363	982.579163	967.867249	65.920822
218.124802	948.622864	984.511047	965.489563	46.997917
218.501236	951.966492	989.637939	975.594727	62.721867
218.877609	951.297852	990.009460	978.269714	69.673836
219.253983	951.817932	995.804993	974.257324	51.013622
219.630295	947.285339	992.387146	968.833191	47.776028
220.006592	949.068604	994.839111	966.901367	38.961254
220.382889	951.743591	992.164246	971.508118	48.897095
220.759140	955.087158	987.706116	971.062256	48.974888
221.135391	945.427795	989.712219	978.938293	75.671074
221.511581	942.158447	992.015625	976.932129	69.746590
221.887772	938.889160	997.216797	986.814453	82.165672
222.263931	945.873718	998.108459	981.984680	69.132080
222.640060	939.780823	1005.538757	981.984680	64.180634
223.016159	939.037842	1010.888489	972.473938	46.535553
223.392212	940.895447	1009.328125	969.724792	42.128040
223.768265	952.858093	1001.303467	971.136536	37.730007
224.144302	959.916809	992.758728	968.758850	26.923035
224.520294	958.802246	991.569824	970.393555	35.374321
224.896286	952.635193	994.467590	970.839355	43.516899
225.272217	952.040710	993.724609	975.669128	56.684761
225.648148	951.372009	997.439758	980.795959	63.871040
226.024048	950.926208	997.291199	978.492615	59.455219
226.399902	953.824036	999.817383	975.148926	46.365162
226.775772	953.303894	991.123962	967.644287	37.917416
227.151581	948.399902	991.346863	969.427551	48.961903
227.527374	942.158447	984.213806	970.170654	66.607941
227.903137	933.019226	987.185852	971.062256	70.233337
228.278870	942.530029	990.529541	971.730957	60.835884
228.654572	943.718811	999.074402	966.678406	41.476559
229.030273	953.972595	997.737000	969.873474	36.332905
229.405930	950.406067	990.232422	968.312988	44.962490
229.781555	946.542419	990.604004	975.371765	65.429665
230.157181	940.598145	997.142578	967.347168	47.306202
230.532761	937.328857	994.541992	966.158264	50.389488
230.908325	939.483643	988.895020	962.443176	46.466087
231.283859	943.124451	983.545166	962.443176	47.794121
231.659332	947.582581	991.495422	958.430725	24.703810
232.034821	944.387512	996.102234	956.201660	22.844845
232.410263	942.307129	995.656433	963.780579	40.250664
232.785690	948.028503	986.517151	965.861023	46.331894
233.161087	957.464844	984.213806	969.576172	45.277748
233.536469	955.978821	984.065247	969.204773	47.090195
233.911804	957.019104	987.111633	974.777405	59.012325
234.287140	958.579407	999.148682	975.000305	40.476192
234.662430	965.861084	1005.687256	971.136536	13.246193
235.037704	955.384338	1002.566650	977.749512	47.401604
235.412933	951.074768	990.901123	984.362488	83.582138
235.788162	940.449524	984.956848	991.198242	114.023300
236.163345	944.090393	994.096130	984.065247	79.940536
236.538513	943.495911	1003.978333	982.430603	64.373566
236.913635	949.737488	1009.551086	981.613220	53.291782
237.288742	943.718933	1006.281738	982.579102	62.113853
237.663834	935.396973	1004.869934	979.086914	62.887691
238.038879	934.728271	1003.532532	974.182861	57.343235
238.413910	935.025452	1013.266174	971.359436	46.438713
238.788910	941.861328	1008.956543	970.467834	42.635689
239.163879	935.248352	1011.185730	973.365662	50.195713
239.538834	939.260681	999.445862	969.947754	50.987755
239.913757	935.917053	1003.978333	976.486328	59.606983
240.288651	949.663086	1002.640930	978.046692	53.576370
240.663528	954.864258	1010.442688	981.538879	47.994556
241.038361	959.991150	1009.551086	975.446106	31.184374
241.413177	955.161438	1004.795715	966.529785	22.904226
241.787979	953.452454	1000.709167	967.347107	29.402496
242.162735	954.789856	996.845398	968.015808	31.448774
242.537476	952.932373	1002.417969	973.142761	40.840950
242.912170	953.601074	1010.888489	967.272766	23.865088
243.286865	954.195557	1017.352783	967.644287	21.294048
243.661514	955.755859	1018.393066	968.981750	21.115072
244.036148	951.594910	1016.758484	974.108643	34.549568
244.410751	952.560852	1018.838928	972.102539	29.484390
244.785339	947.805481	1021.885315	969.353271	29.087255
245.159882	951.669250	1014.529297	958.133606	10.283727
245.534378	944.684875	1009.179504	961.477234	26.036833
245.908890	950.183167	1006.058838	959.545410	16.755491
246.283356	946.913879	1007.842102	966.455505	32.073193
246.657791	945.650696	1010.591309	958.282227	19.450895
247.032196	938.740540	1018.170105	963.557617	31.244131
247.406586	931.013123	1030.132935	972.622620	41.978992
247.780960	936.139954	1043.581665	981.910400	42.600258
248.155289	939.929382	1048.634277	980.127136	36.978790
248.529602	944.090332	1046.405151	977.155090	32.316685
248.903870	940.895325	1037.711792	970.839355	30.928654
249.278122	938.146179	1027.755249	968.833191	34.245430
249.652344	946.096497	1018.467468	963.111816	23.511250
250.026550	953.675476	1008.882385	969.650574	28.936773
250.400711	960.139709	1010.591309	972.696960	24.889698
250.774857	949.068665	1017.947266	977.303650	40.992390
251.148987	933.465088	1023.371399	974.925964	46.115646
251.523071	925.737610	1020.919434	974.034363	50.741570
251.897125	937.626038	1020.845032	976.337708	46.517830
252.271164	945.650696	1019.284668	971.062317	34.510731
252.645187	950.703308	1023.222839	966.604187	21.926340
253.019165	939.632263	1026.120605	965.861084	30.326424
253.393112	942.678650	1034.814087	968.015869	27.499971
253.767044	951.223450	1036.968750	979.607117	33.102299
254.140930	957.093445	1030.950317	981.018860	32.394299
254.514801	951.297791	1028.646851	983.916687	42.171032
254.888657	942.158508	1032.510620	977.303650	38.897976
255.262466	941.564148	1041.129761	968.981750	27.537220
255.636276	942.009827	1040.832520	973.514221	31.879717
256.010010	945.204895	1040.758179	971.359558	27.371809
256.383759	944.238953	1037.043091	979.978577	38.510807
256.757446	952.337891	1043.730347	977.155090	27.154539
257.131134	948.325623	1045.142090	974.183044	26.707670
257.504791	948.399902	1056.436035	970.913757	20.839190
257.878418	945.130615	1054.652832	974.628845	26.933558
258.252014	952.040710	1057.253418	978.343994	25.000101
258.625580	957.687805	1056.956177	978.418274	20.883257
258.999115	954.344177	1066.244141	973.662903	17.264282
259.372650	953.303894	1078.132446	978.789734	20.416676
259.746124	949.514465	1091.729858	977.080750	19.383474
260.119598	957.093323	1097.896973	977.600891	14.564657
260.493042	952.115051	1107.407715	973.588562	13.827769
260.866425	953.006653	1109.711182	970.244934	11.000500
261.239838	949.811707	1114.020752	970.096375	12.352954
261.613159	944.610535	1108.299438	964.226379	11.983613
261.986511	936.808777	1103.023926	965.043762	16.987011
262.359802	935.248352	1095.593628	959.768250	15.291936
262.733063	943.867493	1088.311890	964.300720	14.146085
263.106293	951.520691	1089.203613	970.170593	13.545545
263.479523	948.919983	1095.370605	970.021973	14.408945
263.852692	940.523743	1094.776245	972.622559	20.809267
264.225861	938.220398	1090.466797	973.588562	23.230871
264.598969	947.731140	1081.773438	982.876404	26.219532
264.972076	949.811707	1083.630981	982.133362	24.153214
265.345154	948.771484	1081.104614	984.956848	27.344145
265.718201	944.164734	1089.277954	980.201477	24.833536
266.091217	949.143005	1100.348999	984.213867	23.194096
266.464203	948.399963	1106.739136	980.944519	20.553698
266.837158	945.502136	1116.695557	980.350098	20.355900
267.210114	938.666260	1120.113525	971.285217	17.977100
267.583038	943.793152	1134.676758	970.987976	14.246810
267.955902	948.622803	1136.757324	978.418274	15.837322
268.328766	956.647461	1131.779053	986.368652	16.970778
268.701569	952.263611	1130.292969	985.402649	18.614367
269.074371	947.879700	1143.964722	977.749512	15.233092
269.447144	949.440186	1153.698364	983.619446	16.733362
269.819885	950.554749	1159.494019	986.888733	17.389734
270.192596	948.177063	1156.893433	991.346863	20.683475
270.565277	940.449524	1168.410278	987.854675	20.795313
270.937927	942.307129	1185.128418	983.025085	16.768694
271.310577	942.604309	1205.561646	974.034424	11.952553
271.683136	948.548523	1221.165161	968.015869	7.140924
272.055725	949.960266	1232.161987	968.907532	6.714086
272.428284	952.263672	1236.917480	975.000305	7.987469
272.800812	951.817871	1244.273315	974.405945	7.723595
273.173279	947.582703	1239.740845	978.864075	10.707000
273.545776	953.675476	1235.802856	980.795898	9.612829
273.918152	952.189453	1229.338501	981.167480	10.455755
274.290558	944.684814	1225.028931	975.966248	11.158227
274.662964	938.666321	1226.812134	974.405823	12.403270
275.035278	939.112122	1221.759644	979.978577	14.458451
275.407593	940.821045	1228.149658	984.585388	15.231461
275.779907	948.697205	1232.607910	980.647278	11.253564
276.152161	947.434021	1244.942017	976.189148	9.665329
276.524384	959.248108	1255.270142	970.690735	3.865465
276.896606	948.177063	1259.431152	973.588440	8.164190
277.268799	948.994324	1266.861450	980.127136	9.794285
277.640930	946.690918	1262.254517	982.430481	11.325629
278.013031	942.827148	1269.313354	976.857849	10.423320
278.385162	942.752869	1267.752930	973.068359	9.327842
278.757233	945.799316	1281.870483	977.006409	9.285858
279.129272	952.040771	1280.607300	983.693665	9.633633
279.501282	953.452454	1287.889038	974.182922	6.198625
279.873230	943.644531	1300.297729	972.548279	8.104160
280.245178	944.981995	1317.164429	965.489502	5.510068
280.617126	941.489746	1335.071289	975.223145	8.570879
280.988983	945.576416	1340.049683	973.068359	6.969279
281.360870	949.365906	1364.792358	980.721497	7.547808
281.732697	946.616699	1386.340210	974.405823	6.319681
282.104492	947.582703	1414.203735	973.365662	5.525460
282.476288	945.947937	1431.070435	971.953857	5.360692
282.848053	946.542297	1431.962036	978.343933	6.551369
283.219757	947.582520	1432.853638	976.189148	5.894979
283.591461	944.238953	1426.835083	973.365723	6.035434
283.963135	951.372009	1433.596680	974.108704	4.714959
284.334747	951.669189	1433.893921	982.653503	6.425285
284.706360	948.028381	1443.553223	988.523438	8.172154
285.077942	947.359680	1460.717163	987.780334	7.873783
285.449524	943.273132	1486.203125	986.963074	8.047068
285.821014	947.434021	1500.171875	983.247864	6.479354
286.192535	944.238953	1528.555664	978.715515	5.900321
286.563995	944.907715	1542.004395	976.560730	5.301154
286.935425	949.960266	1561.694702	977.229431	4.457680
287.306824	950.703308	1560.654297	983.545105	5.384334
287.678223	949.365906	1551.515015	976.932190	4.577983
288.049561	940.523865	1535.465820	981.538879	6.893952
288.420898	934.059570	1525.880737	981.687500	8.047689
288.792145	936.214294	1527.812500	983.916687	8.063310
289.163452	940.077942	1538.512207	982.430603	7.077245
289.534668	941.861267	1550.549194	977.749512	5.896001
289.905914	935.471252	1582.127808	980.870300	7.020581
290.277039	933.910889	1609.248413	987.260254	7.899660
290.648193	939.780823	1636.294434	996.622375	8.160868
291.019318	945.873718	1641.569946	999.297302	7.679154
291.390381	950.108887	1657.990845	995.507813	6.413347
291.761475	951.743591	1652.864136	986.294250	4.927920
292.132507	954.418457	1653.458496	986.591553	4.602468
292.503510	957.390564	1632.876587	985.476990	4.157958
292.874481	956.721863	1629.161499	990.306641	4.994467
293.245422	957.687805	1626.560913	986.294373	4.276830
293.616364	952.189453	1642.907593	982.430481	4.378201
293.987213	954.567078	1657.025024	982.802063	4.019455
294.358093	941.935608	1692.690308	985.997070	5.868956
294.728943	944.684814	1731.104858	991.792725	5.990171
295.099731	941.043945	1775.017700	986.665833	5.470422
295.470490	947.433899	1808.602539	977.303711	3.468521
295.841248	939.780762	1822.497070	968.535950	3.257580
296.211975	939.855164	1834.905640	971.136536	3.494928
296.582642	943.198730	1861.654785	980.870300	4.101619
296.953308	946.839600	1899.697754	984.882568	3.992511
297.323883	950.703369	1949.629272	985.179749	3.451345
297.694519	953.601135	1959.585571	983.396484	2.961810
298.065063	954.195557	1963.598022	994.764832	4.019138
298.435608	946.988098	1941.455688	1002.046570	5.536477
298.806122	939.483582	1913.815063	1000.114685	6.222841
299.176575	938.369080	1872.205688	990.678162	5.601524
299.547028	936.288574	1846.274048	982.207703	5.046139
299.917450	940.821045	1821.456909	983.619446	4.859943
300.287872	943.495911	1814.100952	980.052917	4.199035
300.658234	949.440186	1806.819214	975.817688	3.076528
301.028564	955.904541	1813.432129	975.966309	2.339489
301.398865	950.703308	1820.639648	977.155090	3.040657
301.769135	945.502136	1812.466309	984.511047	4.499484
302.139374	942.901550	1813.580933	980.795898	4.352273
302.509583	942.307129	1814.249512	986.071350	5.019165
302.879791	951.743469	1815.661255	985.699890	3.930515
303.249939	952.189392	1817.147339	985.254089	3.822694
303.620087	951.817871	1814.843750	983.990967	3.727941
303.990173	943.570313	1811.500366	983.916687	4.648574
304.360260	938.517761	1808.676758	987.929016	5.678417
304.730286	946.022278	1810.608765	987.780457	4.829844
305.100281	949.960266	1819.599121	988.449158	4.425848
305.470276	947.433899	1824.503296	990.678162	4.930541
305.840179	944.981934	1834.682617	981.613220	4.117260
306.210144	935.768372	1849.171753	982.876404	5.157418
306.579987	937.774597	1861.060181	982.504883	4.844686
306.949890	943.347351	1866.855835	987.260254	4.755008
307.319702	951.149231	1870.125122	984.436768	3.622243
307.689484	954.864441	1895.759766	982.876404	2.977160
308.059265	950.851990	1914.261108	980.424377	3.069556
308.429016	948.622803	1952.898438	980.424377	3.166618
308.798737	941.712646	1978.087036	977.749512	3.477205
309.168396	942.009949	2013.306519	981.390320	3.675954
309.538055	936.808777	2036.563477	982.504883	4.155118
309.907684	941.638367	2059.820068	987.260254	4.080007
310.277313	935.619812	2080.922119	983.842346	4.210464
310.646851	946.765320	2104.996094	983.470764	3.169096
311.016388	944.610535	2121.194092	985.328369	3.460684
311.385895	946.988220	2124.834961	994.839111	4.062574
311.755371	943.495911	2118.816406	992.981628	4.210402
312.124817	941.638367	2125.503418	987.408875	3.866193
312.494232	946.839539	2122.085449	984.362488	3.192775
312.863617	943.198730	2120.896729	982.653503	3.350161
313.232971	947.359680	2105.293213	981.390320	2.938911
313.602295	947.136719	2111.757568	983.990967	3.164485
313.971619	957.167664	2120.822510	993.055847	3.084092
314.340820	957.241943	2122.383057	1001.229187	3.775272
314.710083	951.297791	2133.454346	997.588379	3.915775
315.079285	946.319397	2145.937012	996.993958	4.224226
315.448486	945.576416	2182.270752	1004.275635	4.746461
315.817596	948.474182	2189.180908	1004.424133	4.509522
316.186707	943.941711	2180.710205	996.250793	4.229496
316.555786	950.257507	2142.741943	989.266418	3.271230
316.924866	949.960266	2113.243896	998.108398	4.138985
317.293884	952.337952	2093.702148	1006.653320	4.758811
317.662872	943.198730	2086.494873	1009.922668	5.836103
318.031830	938.517578	2089.095459	1001.749329	5.495652
318.400757	938.889160	2103.064453	1000.560364	5.297416
318.769684	944.016113	2119.039307	999.817383	4.748950
319.138550	945.799316	2142.593018	1003.458191	4.817779
319.507416	944.833435	2152.921143	1005.241516	5.000306
319.876190	942.901550	2158.419922	1009.328186	5.464881
320.244995	947.136780	2165.032959	1009.105286	5.088160
320.613770	954.567078	2154.853271	1010.814209	4.686143
320.982483	956.721863	2146.754150	1012.151672	4.657841
321.351166	954.418457	2119.410889	1014.380676	5.147005
321.719818	949.068604	2111.237549	1024.560181	6.495749
322.088440	949.142883	2119.262451	1028.572632	6.788173
322.457062	948.102722	2138.729736	1037.117310	7.476278
322.825623	949.068665	2164.884033	1033.848022	6.973045
323.194183	948.474304	2192.450439	1035.854126	7.024237
323.562653	948.399963	2229.676025	1040.758179	7.208299
323.931183	944.759094	2267.793213	1045.662109	7.626637
