Jaz Data File
++++++++++++++++++++++++++++++++++++
Date: Fri Jun 04 16:50:15 2021
User: jaz
Dark Spectrum Present: Yes
Reference Spectrum Present: Yes
Processed Spectrum Present: Yes
Spectrometers: JAZA3586
Integration Time (usec): 24900 (JAZA3586)
Spectra Averaged: 10 (JAZA3586)
Boxcar Smoothing: 1 (JAZA3586)
Correct for Electrical Dark: No (JAZA3586)
Strobe/Lamp Enabled: Yes (JAZA3586)
Correct for Detector Non-linearity: No (JAZA3586)
Correct for Stray Light: No (JAZA3586)
Number of Pixels in Processed Spectrum: 2048
>>>>>Begin Processed Spectral Data<<<<<
W	D	R	S	P
191.335022	0.000000	0.000000	0.000000	0.000000
191.713211	231.155762	234.127869	231.155746	-0.000513
192.091385	464.763519	467.438385	467.289795	94.444954
192.469528	701.492004	705.652893	696.959473	-108.931816
192.847641	713.603333	712.860291	703.349609	1379.965454
193.225739	723.857117	731.064453	706.395996	-242.268707
193.603790	734.482422	738.271790	723.336975	-294.124176
193.981842	733.739441	737.900330	732.327637	-33.930351
194.359863	736.117004	734.185120	745.181946	-469.227844
194.737854	737.974609	738.123230	745.181946	4849.486816
195.115829	740.500916	744.736145	750.903320	245.616089
195.493774	744.141785	746.147949	745.330566	59.256443
195.871704	743.472961	746.593750	746.668152	102.384071
196.249603	746.445068	755.361511	741.466858	-55.831799
196.627457	747.188171	758.556458	741.466797	-50.327503
197.005310	747.188171	764.203430	741.243896	-34.934967
197.383133	750.606140	760.339783	743.695984	-70.992500
197.760910	754.246887	757.293274	752.909485	-43.901268
198.138687	752.909485	756.327393	754.172668	36.957802
198.516449	751.943542	754.989990	747.633972	-141.462143
198.894180	745.330566	752.612305	734.110901	-154.079498
199.271866	748.154053	751.572083	734.631042	-395.637573
199.649536	744.736145	746.816650	740.798157	-189.280365
200.027191	745.553467	751.051941	742.284180	-59.458080
200.404816	740.500916	744.364685	744.959045	115.382912
200.782410	742.432800	759.448059	741.466858	-5.676919
201.159988	746.370850	763.311829	743.770203	-15.351220
201.537537	747.931152	776.314880	736.414307	-40.575523
201.915070	745.999268	771.559509	736.191406	-38.371552
202.292557	737.008606	778.320984	734.482422	-6.114836
202.670029	728.835388	777.726563	733.739441	10.030548
203.047485	720.885010	782.333313	728.389587	12.212831
203.424911	718.358704	770.667786	729.132629	20.596664
203.802292	723.188416	771.633789	726.160461	6.134840
204.179688	728.538147	771.930969	733.590820	11.644031
204.557037	728.835388	782.556335	740.798157	22.268351
204.934357	735.374023	782.704895	745.999329	22.448996
205.311661	737.603088	775.571777	741.169678	9.393501
205.688934	741.912659	776.091980	733.590759	-24.347761
206.066177	736.191406	769.999084	735.745544	-1.318818
206.443390	740.278015	775.051758	743.472961	9.187813
206.820587	744.216064	767.101318	745.553467	5.843948
207.197769	743.101501	768.810242	741.912659	-4.624275
207.574921	737.751709	772.302429	735.894226	-5.376105
207.952042	727.052185	774.159973	737.974609	23.186028
208.329147	726.309082	773.045471	741.095276	31.637434
208.706223	732.179016	770.073425	748.154114	42.156872
209.083267	734.036621	768.364441	738.643372	13.419875
209.460297	734.333801	767.992920	736.860046	7.505381
209.837280	723.485596	767.398499	730.395752	15.736050
210.214264	726.457703	769.479004	738.346130	27.633818
210.591217	725.640381	767.101318	736.042786	25.089651
210.968124	722.668274	765.912415	733.887939	25.944939
211.345016	723.188416	764.054871	733.962219	26.363441
211.721893	720.662109	770.370605	734.110901	27.055317
212.098724	717.095520	765.986755	734.333801	35.258427
212.475555	702.383606	762.048767	732.922058	51.183056
212.852356	708.773682	761.974426	733.070618	45.670292
213.229126	711.448547	765.838135	735.002502	43.306000
213.605865	725.417480	768.661621	737.380188	27.663187
213.982590	719.027527	761.602844	737.603088	43.629883
214.359283	722.445313	756.104492	740.426575	53.421570
214.735931	720.141907	760.785583	737.900330	43.692955
215.112579	718.284363	756.104492	730.395813	32.023819
215.489197	719.324646	761.825867	725.120300	13.636442
215.865799	714.049133	760.934143	718.878723	10.300925
216.242355	717.541321	764.203430	726.309082	18.789894
216.618896	722.816895	761.751465	728.463867	14.503750
216.995407	731.733215	762.866028	731.510254	-0.716162
217.371902	732.104675	764.277832	726.680664	-16.858810
217.748367	733.219238	768.736023	721.776672	-32.217346
218.124802	732.104675	763.683350	720.142029	-37.882042
218.501236	736.934387	768.067200	722.073914	-47.732513
218.877609	731.510315	760.265442	721.330872	-35.400448
219.253983	727.572266	757.516174	728.389587	2.729509
219.630295	726.309082	750.829041	730.915833	18.787758
220.006592	721.479431	749.342957	727.349304	21.066513
220.382889	720.142029	754.395508	717.392761	-8.026243
220.759140	717.095520	761.751465	717.021240	-0.166338
221.135391	717.764343	770.816406	724.525818	12.744980
221.511581	717.689941	775.497498	731.213074	23.393364
221.887772	714.420654	770.890808	729.058289	25.921011
222.263931	711.522888	761.454285	729.206848	35.416515
222.640060	704.984192	756.253113	724.897400	38.840702
223.016159	706.470276	760.785583	729.058289	41.586826
223.392212	709.145203	769.627625	731.436035	36.855061
223.768265	723.188416	774.457275	733.739441	20.579794
224.144302	723.485596	775.200378	731.436035	15.373631
224.520294	731.881836	767.918640	730.098572	-4.948452
224.896286	728.389648	763.757751	733.665039	14.915673
225.272217	728.315247	766.135315	735.745605	19.646603
225.648148	724.525818	769.701843	732.179016	16.940840
226.024048	722.593933	772.599609	726.457764	7.726784
226.399902	718.953125	775.943359	720.662109	2.998732
226.775772	723.857178	779.064026	717.912903	-10.767278
227.151581	729.206970	777.726563	716.798340	-25.574474
227.527374	734.036621	776.983582	726.977844	-16.436033
227.903137	730.395752	775.794739	737.157288	14.893582
228.278870	730.990234	779.807129	737.454407	13.241671
228.654572	736.042786	772.302490	722.742493	-36.680645
229.030273	733.590759	765.912415	717.987122	-48.276108
229.405930	723.782776	759.893982	722.148132	-4.526693
229.781555	724.674500	762.048767	726.011902	3.578404
230.157181	724.302917	765.838135	725.120300	1.967927
230.532761	731.658875	771.262207	719.398926	-30.956861
230.908325	720.885010	776.983582	725.417480	8.079476
231.283859	720.736389	776.091980	737.454529	30.201357
231.659332	713.603333	773.862793	744.364685	51.048172
232.034821	725.120300	770.816406	748.451355	51.056988
232.410263	722.668274	767.770020	739.683594	37.726521
232.785690	729.875671	768.438721	740.352356	27.167677
233.161087	724.228577	761.157043	731.584656	19.919806
233.536469	720.736328	767.472839	731.361633	22.734486
233.911804	716.501160	763.163269	727.200684	22.929790
234.287140	719.621826	766.878418	724.674500	10.691997
234.662430	724.377258	766.655457	719.176025	-12.302400
235.037704	723.485596	770.890625	720.959290	-5.329195
235.412933	719.324646	778.023743	732.476257	22.405134
235.788162	718.210144	773.268372	744.736145	48.178089
236.163345	720.142029	767.027039	748.228333	59.904655
236.538513	718.953125	764.054932	741.689758	50.411800
236.913635	721.256531	774.903076	731.584656	19.252172
237.288742	723.931458	778.172363	728.389648	8.219241
237.663834	724.748779	776.017578	733.070618	16.231779
238.038879	730.024231	771.410889	731.138733	2.692902
238.413910	727.646545	774.754456	731.213074	7.570975
238.788910	733.145020	777.800842	725.863281	-16.306358
239.163879	730.692932	778.692444	733.219238	5.263191
239.538834	735.002502	776.166199	738.643372	8.844854
239.913757	728.092346	775.200256	744.884766	35.646709
240.288651	729.578430	777.057861	739.014832	19.874714
240.663528	723.337097	777.726563	736.340027	23.907074
241.038361	729.578430	778.915466	734.185120	9.337183
241.413177	728.984070	784.190918	736.414246	13.458794
241.787979	732.327637	787.608887	735.522644	5.779550
242.162735	732.699219	789.243469	728.389648	-7.621589
242.537476	731.881775	785.156921	725.714661	-11.575969
242.912170	731.807556	787.237305	726.086182	-10.321848
243.286865	727.869446	788.054688	728.983948	1.851786
243.661514	726.532043	789.689270	732.996338	10.235241
244.036148	730.024231	789.317810	732.476257	4.135399
244.410751	730.767273	788.128906	737.305847	11.398864
244.785339	733.516418	786.419983	734.408020	1.685334
245.159882	724.823059	798.977234	734.333740	12.825550
245.534378	722.222412	799.348694	731.658875	12.235080
245.908890	715.758057	795.782166	731.956116	20.241474
246.283356	716.724060	782.407654	732.699219	24.321383
246.657791	721.553711	782.779114	732.104736	17.233084
247.032196	730.024231	790.357971	742.358459	20.443335
247.406586	734.928223	803.509583	744.884766	14.517856
247.780960	726.383362	808.710754	743.027283	20.216747
248.155289	717.987122	818.444519	733.739319	15.680475
248.529602	717.689941	815.620911	719.844727	2.200310
248.903870	725.268860	823.794250	721.330811	-3.996989
249.278122	727.869446	818.370178	725.045959	-3.119849
249.652344	716.501160	814.655029	738.197510	22.104427
250.026550	713.008972	800.983337	737.974609	28.378309
250.400711	707.659180	798.679932	730.990173	25.632608
250.774857	721.033630	795.187744	719.398926	-2.204469
251.148987	722.445374	795.633484	721.182190	-1.725941
251.523071	726.383362	799.274414	728.761047	3.261972
251.897125	723.262695	804.475586	734.333801	13.632203
252.271164	727.200745	806.704651	732.847717	7.102761
252.645187	728.909668	806.778992	731.510254	3.339680
253.019165	729.578430	810.122620	731.881836	2.859804
253.393112	724.600098	812.277344	734.408020	11.186394
253.767044	723.336975	809.899719	727.126465	4.377738
254.140930	725.045959	806.704590	727.423584	2.911664
254.514801	726.309082	810.122559	727.497864	1.418366
254.888657	735.374023	814.060608	738.271790	3.682669
255.262466	731.361633	814.952209	736.265686	5.866753
255.636276	734.408142	813.911926	737.528809	3.925180
256.010010	727.943787	813.837708	733.367859	6.314850
256.383759	733.144958	821.565186	737.603088	5.041980
256.757446	724.600159	823.645691	733.070618	8.552086
257.131134	723.114075	827.360840	721.925232	-1.140412
257.504791	724.005676	835.162598	719.175964	-4.344949
257.878418	723.857117	840.140808	725.640320	1.533494
258.252014	718.804504	848.388428	736.340027	13.532174
258.625580	711.448547	856.561768	733.888000	15.463410
258.999115	716.724060	875.731750	728.761047	7.570066
259.372650	717.318542	890.666748	733.144958	9.129841
259.746124	723.708496	902.480896	739.757874	8.977548
260.119598	733.516418	926.257751	738.643311	2.659986
260.493042	737.900208	938.666321	731.213074	-3.330808
260.866425	730.172852	952.783752	728.686768	-0.667570
261.239838	711.448547	941.266907	731.807434	8.858685
261.613159	713.528992	925.886230	728.761169	7.172903
261.986511	715.386536	899.285828	720.959290	3.030329
262.359802	725.491699	881.824707	708.699402	-10.741364
262.733063	731.584534	879.446960	717.095520	-9.798983
263.106293	734.408142	883.087830	722.222473	-8.195921
263.479523	732.104736	890.740967	736.265686	2.622951
263.852692	721.702332	889.997986	736.934387	9.050772
264.225861	724.005676	890.815247	737.380188	8.017833
264.598969	728.612488	893.044434	737.231628	5.241768
264.972076	734.482422	900.325989	734.408142	-0.044789
265.345154	734.333801	894.604736	738.420471	2.549851
265.718201	729.281189	896.016541	732.104797	1.693467
266.091217	732.699158	898.691406	735.596985	1.745761
266.464203	733.144958	918.976074	735.002502	0.999587
266.837158	735.671204	926.109131	747.931152	6.437767
267.210114	726.011780	929.155579	746.593750	10.131724
267.583038	720.959290	928.263977	747.931152	13.010735
267.955902	718.953125	932.350586	740.203796	9.958259
268.328766	715.015137	941.787048	744.884766	13.171661
268.701569	712.414551	941.341125	742.209961	13.015269
269.074371	713.751953	946.839600	740.278015	11.380295
269.447144	720.884949	951.594971	728.612488	3.349460
269.819885	722.445313	966.529785	734.333801	4.870645
270.192596	725.863281	979.384094	738.197510	4.865174
270.565277	721.627991	996.622375	739.609192	6.538752
270.937927	723.039795	1007.544861	732.401917	3.290669
271.310577	710.854065	1030.801636	727.126404	5.085939
271.683136	714.494934	1047.891235	729.281250	4.435057
272.055725	711.299988	1081.550415	726.309082	4.053768
272.428284	717.392761	1092.695801	726.160461	2.336165
272.800812	719.250305	1101.389160	729.281250	2.624948
273.173279	723.931396	1073.228516	735.745544	3.382263
273.545776	728.389587	1071.445190	739.683594	3.292180
273.918152	724.302917	1064.906616	734.556702	3.010473
274.290558	725.268860	1075.606079	734.333801	2.587490
274.662964	724.302917	1056.213135	732.847717	2.574431
275.035278	729.801270	1054.578491	735.002502	1.601477
275.407593	725.714661	1056.064575	737.008728	3.418819
275.779907	725.863281	1070.850708	739.460693	3.941422
276.152161	723.411316	1079.395630	737.454529	3.944896
276.524384	726.977844	1103.098145	728.686768	0.454356
276.896606	722.891113	1111.717285	729.801331	1.777200
277.268799	719.919128	1122.639771	730.915833	2.730603
277.640930	721.776672	1119.370483	733.293640	2.896667
278.013031	724.971680	1133.488037	731.064514	1.491454
278.385162	726.309082	1127.246582	729.429871	0.778373
278.757233	725.789001	1133.710938	729.875671	1.001827
279.129272	726.829163	1127.618042	734.408142	1.891015
279.501282	723.559875	1138.020386	732.699158	2.205103
279.873230	729.058289	1142.850098	727.052185	-0.484810
280.245178	722.668274	1156.670532	722.668274	0.000000
280.617126	728.166687	1174.205933	724.377258	-0.849573
280.988983	714.420593	1199.617432	732.773438	3.782557
281.360870	717.615662	1234.762695	730.098572	2.413803
281.732697	718.953125	1270.947876	730.544373	2.099884
282.104492	728.538269	1296.731079	723.931458	-0.810783
282.476288	728.389465	1313.449097	720.290588	-1.384282
282.848053	724.748718	1322.662598	718.730225	-1.006582
283.219757	717.318420	1323.480103	723.039795	0.943869
283.591461	719.324707	1321.250977	723.634216	0.715953
283.963135	723.262695	1319.318970	722.816895	-0.074792
284.334747	723.114075	1329.349976	724.600098	0.245123
284.706360	723.188293	1350.154663	731.807556	1.374757
285.077942	724.971619	1370.588013	730.990234	0.932228
285.449524	731.881836	1402.315063	729.652771	-0.332481
285.821014	732.030457	1420.519409	720.662109	-1.651203
286.192535	727.646545	1451.355103	720.513489	-0.985626
286.563995	726.383484	1465.472656	724.971680	-0.191019
286.935425	722.965515	1486.871704	728.389587	0.710044
287.306824	719.770508	1484.791382	739.089172	2.525247
287.678223	726.680664	1477.806763	737.974609	1.503602
288.049561	733.739441	1457.076294	745.033386	1.561367
288.420898	730.024231	1444.667847	743.547302	1.892282
288.792145	724.748718	1441.770020	745.404846	2.880825
289.163452	721.107910	1448.457153	743.695862	3.105517
289.534668	726.011902	1472.605591	733.516418	1.005167
289.905914	726.680603	1497.348267	727.423584	0.096407
290.277039	725.045898	1535.094238	719.993347	-0.623735
290.648193	731.584656	1572.914429	732.030334	0.052973
291.019318	732.699158	1598.028687	743.101501	1.202125
291.390381	730.544373	1617.570313	748.154053	1.985250
291.761475	727.126465	1609.471313	746.222168	2.164200
292.132507	714.123474	1606.127808	739.609314	2.857143
292.503510	712.265930	1582.573730	737.454529	2.894217
292.874481	714.346375	1570.239380	731.064453	1.953291
293.245422	715.386536	1574.326050	722.519714	0.830463
293.616364	723.485596	1596.022461	722.668274	-0.093672
293.987213	713.380432	1635.254395	724.748779	1.233178
294.358093	716.724060	1671.291138	730.024231	1.393320
294.728943	715.163635	1716.913086	725.640381	1.045845
295.099731	720.216309	1765.358398	724.154297	0.376790
295.470490	720.736328	1793.147827	720.142029	-0.055417
295.841248	720.885010	1824.354858	723.336975	0.222205
296.211975	731.287354	1840.106934	720.141907	-1.005163
296.582642	735.076843	1885.803101	724.674500	-0.903981
296.953308	736.860107	1931.127808	732.179016	-0.391963
297.323883	734.853943	1979.498657	740.872559	0.483561
297.694519	733.070618	2011.597656	741.466980	0.656721
298.065063	733.070618	2009.739868	734.110901	0.081484
298.435608	727.497986	1988.563843	734.482361	0.553847
298.806122	726.977844	1931.573608	738.197510	0.931405
299.176575	730.692871	1875.029175	736.785706	0.532434
299.547028	733.962219	1836.837524	733.442139	-0.047157
299.917450	734.928223	1825.692261	727.052063	-0.722077
300.287872	726.160461	1823.165894	730.470032	0.392849
300.658234	728.240967	1817.295898	731.510254	0.300195
301.028564	732.847717	1812.317749	736.265686	0.316634
301.398865	737.825989	1815.586914	731.807556	-0.558420
301.769135	729.504089	1809.791382	740.946716	1.059221
302.139374	722.148132	1811.500366	737.677429	1.425553
302.509583	712.488770	1810.088501	736.711426	2.206875
302.879791	711.076965	1809.940063	725.640320	1.325311
303.249939	707.733398	1799.983398	724.154297	1.503401
303.620087	717.838562	1789.209595	731.361633	1.262221
303.990173	721.330811	1775.760742	737.454529	1.529141
304.360260	720.290527	1785.123047	739.683594	1.821232
304.730286	722.668274	1782.819702	737.157288	1.366693
305.100281	722.519592	1798.125977	734.853943	1.146735
305.470276	735.968445	1800.875000	737.380188	0.132570
305.840179	731.361633	1820.119507	739.609314	0.757531
306.210144	726.829285	1836.540405	739.832214	1.171740
306.579987	720.290588	1852.663940	737.157288	1.489500
306.949890	712.934631	1870.868164	728.538147	1.347531
307.319702	725.491760	1886.323120	729.949890	0.384046
307.689484	729.652771	1911.660278	732.030457	0.201157
308.059265	737.825989	1935.288696	739.980774	0.179946
308.429016	727.349365	1967.907593	730.395752	0.245566
308.798737	723.411316	2000.526489	726.086182	0.209446
309.168396	723.634277	2049.046143	730.470032	0.515746
309.538055	726.011902	2088.575195	729.504089	0.256295
309.907684	725.863281	2122.308594	734.333801	0.606577
310.277313	723.039795	2149.428955	728.463867	0.380266
310.646851	727.275085	2172.017334	726.754883	-0.036007
311.016388	728.686829	2186.134766	726.531982	-0.147851
311.385895	724.525879	2176.549561	730.024231	0.378668
311.755371	727.646484	2178.778809	742.655701	1.034311
312.124817	731.584534	2176.772461	737.157227	0.385603
312.494232	733.144958	2178.852783	730.395691	-0.190168
312.863617	733.813660	2163.398193	726.829163	-0.488568
313.232971	732.104675	2149.800781	731.584534	-0.036689
313.602295	741.095398	2141.627441	732.030457	-0.647250
313.971619	738.271790	2153.441406	734.631042	-0.257266
314.340820	737.677429	2161.763428	731.733215	-0.417406
314.710083	722.742615	2190.369873	732.179016	0.642970
315.079285	716.649719	2216.450195	727.349304	0.713401
315.448486	716.278259	2255.013428	730.098572	0.898161
315.817596	725.268860	2255.756348	738.717590	0.878722
316.186707	730.544373	2227.892822	741.318298	0.719534
316.555786	729.652649	2188.066650	741.689758	0.825356
316.924866	726.309082	2146.605469	742.135559	1.114308
317.293884	714.717834	2128.772949	739.609314	1.760291
317.662872	712.488770	2122.754395	740.426575	1.981031
318.031830	715.609558	2140.735596	733.367859	1.246086
318.400757	726.309082	2149.280518	730.618652	0.302857
318.769684	727.720764	2160.277344	731.584656	0.269720
319.138550	721.999512	2182.791016	726.829285	0.330627
319.507416	717.764343	2212.511963	732.104675	0.959382
319.876190	715.163635	2229.675781	733.293518	1.197077
320.244995	722.891113	2222.022949	742.804260	1.328312
320.613770	725.640320	2197.800293	743.695862	1.226466
320.982483	736.042786	2178.630127	743.250061	0.499608
321.351166	735.745544	2161.391846	739.312012	0.250165
321.719818	732.847717	2159.682861	734.705322	0.130191
322.088440	725.491760	2157.082275	732.253357	0.472314
322.457062	721.479492	2179.893066	731.287415	0.672506
322.825623	721.256531	2214.740967	732.179016	0.731342
323.194183	714.569336	2254.790283	732.327637	1.152971
323.562653	712.340271	2298.183105	731.361755	1.199456
323.931183	710.705566	2351.978271	732.624817	1.335503
324.299591	715.981018	2422.343018	735.968445	1.171347
324.668060	720.662109	2479.556396	733.887939	0.751940
325.036407	725.268799	2521.908936	733.665039	0.467330
