Jaz Data File
++++++++++++++++++++++++++++++++++++
Date: Fri Jun 04 16:03:33 2021
User: jaz
Dark Spectrum Present: Yes
Reference Spectrum Present: Yes
Processed Spectrum Present: Yes
Spectrometers: JAZA3586
Integration Time (usec): 24600 (JAZA3586)
Spectra Averaged: 10 (JAZA3586)
Boxcar Smoothing: 1 (JAZA3586)
Correct for Electrical Dark: No (JAZA3586)
Strobe/Lamp Enabled: Yes (JAZA3586)
Correct for Detector Non-linearity: No (JAZA3586)
Correct for Stray Light: No (JAZA3586)
Number of Pixels in Processed Spectrum: 2048
>>>>>Begin Processed Spectral Data<<<<<
W	D	R	S	P
191.335022	0.000000	0.000000	0.000000	0.000000
191.713211	387.488678	386.225494	373.817017	1082.317871
192.091385	782.481934	776.240479	754.692688	445.236664
192.469528	1172.942749	1174.948853	1133.785278	-1951.916748
192.847641	1184.311157	1189.289429	1147.085327	-747.766174
193.225739	1196.571167	1199.320190	1158.528076	-1383.876587
193.603790	1211.877319	1200.360474	1175.171875	318.710907
193.981842	1215.518188	1204.224121	1188.397705	240.130356
194.359863	1208.905273	1203.852661	1194.193237	291.176819
194.737854	1212.768921	1214.849487	1192.112915	-992.806824
195.115829	1216.855591	1212.694702	1190.032349	644.651733
195.493774	1224.806030	1210.465576	1191.815552	230.051834
195.871704	1219.159058	1204.892944	1195.976563	162.500427
196.249603	1223.468628	1208.533691	1189.437988	227.859283
196.627457	1216.781372	1210.985718	1180.373047	628.200439
197.005310	1218.787598	1215.221069	1178.366821	1133.336792
197.383133	1212.026001	1212.248901	1179.555664	-14567.196289
197.760910	1210.688599	1217.821655	1182.602051	-393.751923
198.138687	1208.013672	1216.707031	1179.407104	-329.062286
198.516449	1204.521484	1217.301392	1177.995361	-207.561157
198.894180	1206.527466	1213.883545	1178.292603	-383.830353
199.271866	1202.069458	1216.038330	1180.744507	-152.660507
199.649536	1199.171753	1215.221069	1179.184204	-124.538322
200.027191	1201.846558	1219.901978	1183.716675	-100.412415
200.404816	1200.360474	1213.437622	1180.224487	-153.978424
200.782410	1202.440918	1226.069214	1187.208862	-64.465317
201.159988	1203.183960	1232.756470	1188.026245	-51.256100
201.537537	1212.397461	1237.586060	1192.484375	-79.055946
201.915070	1209.796875	1236.694458	1197.016846	-47.513672
202.292557	1204.149902	1234.911255	1201.846558	-7.487788
202.670029	1196.422485	1242.490112	1208.162231	25.483723
203.047485	1196.050903	1249.400269	1208.905273	24.094702
203.424911	1191.592773	1261.734497	1203.332520	16.737179
203.802292	1197.462524	1257.053345	1197.536987	0.124957
204.179688	1197.314087	1248.359985	1187.134644	-19.941746
204.557037	1199.691772	1237.957642	1183.642456	-41.941597
204.934357	1188.397827	1239.518066	1181.710449	-13.081664
205.311661	1187.060181	1244.867798	1187.951904	1.542571
205.688934	1192.038574	1253.858398	1193.004395	1.562315
206.066177	1193.004517	1257.796387	1190.552368	-3.784655
206.443390	1195.902222	1252.743774	1190.181030	-10.065157
206.820587	1191.741333	1246.428101	1180.521606	-20.516346
207.197769	1198.057129	1237.363281	1183.567993	-36.862259
207.574921	1199.914551	1239.517944	1177.846802	-55.721863
207.952042	1195.307739	1233.127930	1180.521606	-39.095871
208.329147	1190.626831	1241.747070	1178.887085	-22.964968
208.706223	1191.444092	1237.586060	1185.276978	-13.365520
209.083267	1196.868286	1233.499390	1186.540161	-28.194960
209.460297	1206.378906	1227.109497	1184.534058	-105.374947
209.837280	1203.926880	1224.806030	1175.394775	-136.653564
210.214264	1195.456421	1231.567627	1176.955078	-51.234352
210.591217	1186.168579	1228.595581	1180.298706	-13.835230
210.968124	1186.094360	1228.223999	1183.567993	-5.996651
211.345016	1190.032349	1233.053589	1185.499878	-10.535425
211.721893	1193.004517	1244.496216	1185.574219	-14.430089
212.098724	1191.592773	1248.657227	1192.038574	0.781223
212.475555	1193.227417	1249.771851	1188.917847	-7.621564
212.852356	1191.369873	1240.929810	1182.379272	-18.140863
213.229126	1188.917847	1246.799683	1172.051147	-29.139883
213.605865	1193.598999	1250.663330	1177.177856	-28.776545
213.982590	1197.388550	1256.830444	1186.688721	-18.000484
214.359283	1196.645386	1256.681885	1190.255371	-10.643550
214.735931	1192.261475	1249.028687	1185.128296	-12.565667
215.112579	1187.580444	1251.703613	1186.317139	-1.970124
215.489197	1193.524536	1248.880249	1187.803345	-10.335322
215.865799	1187.431885	1243.381714	1187.506104	0.132652
216.242355	1187.357544	1238.774902	1180.224487	-13.872857
216.618896	1182.379272	1232.310547	1184.088135	3.422429
216.995407	1182.230469	1236.545898	1184.385376	3.967394
217.371902	1183.270752	1230.824585	1189.735229	13.594020
217.748367	1195.084961	1229.858521	1181.636230	-38.675163
218.124802	1206.304565	1228.001099	1180.670288	-118.149185
218.501236	1204.001221	1234.168213	1180.150146	-79.063484
218.877609	1188.843384	1244.570557	1186.614380	-3.999851
219.253983	1176.063354	1250.366211	1189.512207	18.100048
219.630295	1180.744507	1244.719238	1180.075806	-1.045258
220.006592	1182.453613	1247.096802	1182.379272	-0.115002
220.382889	1194.119019	1249.846069	1179.481445	-26.266550
220.759140	1195.307861	1256.904785	1187.803223	-12.183463
221.135391	1203.852661	1257.499146	1183.642334	-37.673161
221.511581	1203.258301	1251.332153	1180.298828	-47.758755
221.887772	1196.422485	1251.555054	1177.178101	-34.905655
222.263931	1193.227417	1245.833740	1174.131592	-36.299488
222.640060	1189.066528	1242.713013	1179.927246	-17.036125
223.016159	1190.329590	1241.821411	1185.425537	-9.523945
223.392212	1188.843506	1243.381714	1176.880737	-21.934656
223.768265	1186.094238	1250.514771	1170.639404	-23.990541
224.144302	1185.276978	1253.486938	1163.357666	-32.135059
224.520294	1188.249023	1251.183594	1172.571167	-24.911358
224.896286	1190.106567	1257.573608	1167.221436	-33.920464
225.272217	1193.598877	1257.127808	1165.512573	-44.210258
225.648148	1188.769409	1260.397095	1172.645508	-22.510712
226.024048	1191.964233	1254.452759	1186.540161	-8.680109
226.399902	1191.146851	1262.106079	1195.902344	6.701726
226.775772	1198.428589	1261.140015	1195.233521	-5.094874
227.151581	1191.592651	1265.152344	1188.769165	-3.838361
227.527374	1192.558594	1260.322754	1179.630005	-19.078800
227.903137	1188.471924	1273.474243	1175.097656	-15.734003
228.278870	1188.992065	1284.248169	1182.230591	-7.098206
228.654572	1186.911621	1300.000366	1190.775391	3.416582
229.030273	1183.939575	1312.111816	1195.233521	8.811538
229.405930	1187.729126	1317.461548	1190.181030	1.889970
229.781555	1192.856079	1320.730957	1185.202637	-5.985102
230.157181	1197.982910	1324.891846	1183.790894	-11.182835
230.532761	1198.279907	1332.024902	1186.985962	-8.444387
230.908325	1194.936401	1332.396362	1194.936279	-0.000089
231.283859	1189.512207	1324.297363	1198.279907	6.504945
231.659332	1186.020020	1311.442993	1197.908569	9.478765
232.034821	1189.661011	1304.978638	1190.106689	0.386479
232.410263	1187.580444	1303.567017	1183.865234	-3.203138
232.785690	1192.855957	1298.588745	1182.453491	-9.838449
233.161087	1187.283203	1297.028198	1183.939575	-3.046725
233.536469	1194.564819	1292.272827	1185.574219	-9.201498
233.911804	1192.930176	1291.009766	1186.243042	-6.818069
234.287140	1193.524536	1292.421509	1187.357544	-6.235775
234.662430	1192.558594	1291.604248	1186.317383	-6.301348
235.037704	1197.091064	1300.223267	1189.809570	-7.060350
235.412933	1202.440918	1307.430786	1191.146973	-10.757176
235.788162	1197.091187	1317.164307	1195.753784	-1.113823
236.163345	1193.301758	1320.507935	1184.385376	-7.009394
236.538513	1195.233521	1319.244751	1179.035522	-13.061719
236.913635	1197.611206	1312.260376	1172.645508	-21.775734
237.288742	1196.942505	1309.585571	1176.732056	-17.942026
237.663834	1191.444214	1304.012817	1185.648560	-5.148553
238.038879	1189.958130	1307.802124	1186.688843	-2.774250
238.413910	1192.558716	1315.380981	1196.422485	3.145822
238.788910	1196.868286	1316.644165	1195.828003	-0.868525
239.163879	1202.069458	1317.089966	1194.639160	-6.459977
239.538834	1201.846558	1314.638062	1191.146973	-9.486162
239.913757	1198.800171	1325.857666	1188.546387	-8.070192
240.288651	1200.954956	1341.238281	1189.809448	-7.944998
240.663528	1200.657715	1351.046387	1188.100464	-8.349865
241.038361	1196.793945	1366.798462	1182.230469	-8.566524
241.413177	1193.524536	1384.110962	1182.379272	-5.847879
241.787979	1199.394531	1414.649536	1182.082031	-8.042787
242.162735	1194.490601	1437.163208	1186.614624	-3.245515
242.537476	1190.849731	1452.989624	1188.100464	-1.048779
242.912170	1187.729004	1465.101074	1189.214966	0.535729
243.286865	1186.837280	1482.042114	1189.883667	1.031957
243.661514	1186.391602	1493.484741	1191.815552	1.766223
244.036148	1187.134644	1488.506470	1187.431885	0.098629
244.410751	1196.422485	1474.908813	1192.038696	-1.574149
244.785339	1201.995117	1457.967896	1190.701172	-4.412167
245.159882	1201.252075	1450.091797	1191.890015	-3.762285
245.534378	1201.549194	1447.639771	1187.654663	-5.646104
245.908890	1200.806274	1471.639648	1184.013794	-6.200300
246.283356	1200.360474	1503.515625	1186.317261	-4.632352
246.657791	1195.976685	1551.292114	1189.066406	-1.944829
247.032196	1191.741333	1598.846069	1196.645386	1.204617
247.406586	1194.787720	1662.300415	1195.753662	0.206613
247.780960	1191.667114	1722.188477	1192.855835	0.224067
248.155289	1189.363647	1747.599976	1190.478149	0.199647
248.529602	1183.047852	1741.878784	1182.676392	-0.066471
248.903870	1195.159302	1695.067993	1184.682617	-2.095720
249.278122	1198.725830	1649.148804	1178.515503	-4.486966
249.652344	1201.995117	1596.096680	1181.338989	-5.241321
250.026550	1195.456543	1558.648071	1183.791016	-3.211949
250.400711	1199.989136	1534.871460	1185.722900	-4.260074
250.774857	1201.400757	1520.456665	1188.992065	-3.889190
251.148987	1197.759888	1518.004517	1184.013916	-4.292335
251.523071	1190.255249	1513.769165	1186.243042	-1.240196
251.897125	1186.837280	1524.766113	1191.592773	1.407247
252.271164	1195.159302	1534.574097	1190.255249	-1.444855
252.645187	1201.177856	1558.127930	1192.187134	-2.518762
253.019165	1196.645264	1576.852173	1182.081909	-3.830376
253.393112	1194.787720	1585.099976	1185.202759	-2.455716
253.767044	1195.307983	1572.914429	1180.150024	-4.014222
254.140930	1201.475098	1541.781616	1185.276978	-4.759862
254.514801	1196.942505	1523.131470	1181.487549	-4.738038
254.888657	1196.125244	1503.738647	1189.660767	-2.101494
255.262466	1192.855835	1508.642578	1197.091064	1.341168
255.636276	1192.038452	1503.589966	1203.555420	3.696650
256.010010	1192.781616	1508.493774	1196.793945	1.270882
256.383759	1195.159302	1519.861938	1187.060425	-2.494244
256.757446	1196.050903	1540.221069	1178.589722	-5.073415
257.131134	1190.775269	1566.895874	1181.487671	-2.469314
257.504791	1188.546265	1589.409668	1182.973633	-1.390157
257.878418	1192.187134	1620.319458	1187.506104	-1.093361
258.252014	1190.849731	1657.099243	1186.094360	-1.019920
258.625580	1193.821777	1694.027710	1188.769165	-1.010106
258.999115	1196.496704	1755.401733	1190.478149	-1.076847
259.372650	1199.840332	1837.803345	1193.598999	-0.978322
259.746124	1190.478149	1936.105957	1191.518433	0.139518
260.119598	1183.122192	2027.572632	1186.540161	0.404757
260.493042	1179.852905	2101.429443	1182.676392	0.306376
260.866425	1188.620605	2141.181396	1184.385376	-0.444615
261.239838	1191.295410	2115.547119	1187.283203	-0.434103
261.613159	1198.948608	2026.160767	1190.849731	-0.979057
261.986511	1194.639282	1921.914063	1190.106689	-0.623230
262.359802	1194.862061	1844.342163	1189.140747	-0.880907
262.733063	1191.146851	1812.466309	1184.013916	-1.148030
263.106293	1197.685425	1800.875000	1188.694946	-1.490490
263.479523	1194.564819	1787.277710	1186.094360	-1.429100
263.852692	1197.314087	1784.156860	1184.533936	-2.177781
264.225861	1195.010620	1772.862915	1183.865234	-1.928760
264.598969	1203.852661	1773.754517	1188.843628	-2.633617
264.972076	1204.447144	1764.764038	1193.152954	-2.015679
265.345154	1204.372681	1772.045532	1183.642456	-3.651791
265.718201	1201.474976	1786.683105	1182.973633	-3.161498
266.091217	1197.091187	1816.329956	1185.871460	-1.811858
266.464203	1191.146973	1851.846558	1195.828003	0.708496
266.837158	1188.843628	1894.124878	1193.376099	0.642647
267.210114	1190.255371	1932.836548	1189.660889	-0.080056
267.583038	1194.342041	1960.328735	1185.425659	-1.164039
267.955902	1189.958130	1966.272949	1188.397583	-0.201020
268.328766	1188.174805	1969.913696	1180.818848	-0.940974
268.701569	1189.586548	1969.022095	1180.670166	-1.143954
269.074371	1193.598877	1982.842407	1175.914917	-2.240622
269.447144	1195.679321	1986.185913	1187.060303	-1.090316
269.819885	1195.307861	2008.030884	1185.797241	-1.170217
270.192596	1201.549316	2029.504395	1190.775391	-1.301269
270.565277	1202.218140	2077.132568	1185.128418	-1.953302
270.937927	1208.310791	2138.655273	1193.673218	-1.573350
271.310577	1201.846558	2206.642334	1190.775513	-1.101820
271.683136	1200.731934	2290.901611	1206.081787	0.490736
272.055725	1192.038452	2350.640869	1202.961060	0.942740
272.428284	1194.341919	2380.659180	1204.670044	0.870604
272.800812	1191.592773	2357.179443	1188.397583	-0.274127
273.173279	1188.843384	2322.554443	1184.385376	-0.393223
273.545776	1186.242798	2302.789795	1186.614380	0.033280
273.918152	1189.735229	2282.059326	1190.329590	0.054412
274.290558	1196.199585	2252.784180	1191.741333	-0.421949
274.662964	1199.691772	2237.403564	1196.496704	-0.307896
275.035278	1199.245972	2224.474854	1198.948730	-0.028993
275.407593	1191.146851	2239.260986	1196.942505	0.552960
275.779907	1190.106567	2248.400391	1189.512207	-0.056162
276.152161	1190.998169	2273.885986	1183.865234	-0.658696
276.524384	1191.443970	2305.910889	1186.465820	-0.446684
276.896606	1188.769287	2340.981689	1186.911743	-0.161215
277.268799	1193.227417	2373.451904	1193.301636	0.006289
277.640930	1202.515259	2388.015137	1186.985962	-1.309937
278.013031	1202.812378	2398.863281	1192.930176	-0.826236
278.385162	1199.691772	2404.064697	1189.958130	-0.808192
278.757233	1193.970337	2396.411377	1194.044800	0.006193
279.129272	1203.035522	2384.374268	1189.363647	-1.157320
279.501282	1201.177856	2381.996582	1189.512329	-0.987919
279.873230	1202.069458	2407.185303	1193.598877	-0.702885
280.245178	1192.187134	2443.965088	1188.471924	-0.296795
280.617126	1189.437988	2506.305176	1196.719604	0.552950
280.988983	1188.323364	2566.193115	1196.125122	0.566219
281.360870	1190.478149	2625.858154	1205.487305	1.045657
281.732697	1191.518433	2684.780273	1200.509033	0.602078
282.104492	1189.809448	2746.376953	1201.103394	0.725567
282.476288	1187.431763	2805.150391	1195.976563	0.528201
282.848053	1190.775391	2847.577393	1191.443970	0.040354
283.219757	1196.125244	2867.639404	1182.899292	-0.791256
283.591461	1195.605103	2852.555908	1180.893066	-0.887898
283.963135	1194.267700	2831.676758	1181.190308	-0.798664
284.334747	1195.159302	2827.441406	1194.787720	-0.022765
284.706360	1198.205688	2861.174805	1198.131348	-0.004470
285.077942	1198.428589	2914.375732	1198.948730	0.030312
285.449524	1195.530762	2967.427734	1191.666992	-0.218058
285.821014	1198.651489	3006.436768	1187.357544	-0.624739
286.192535	1197.982788	3066.919189	1191.815796	-0.329973
286.563995	1197.388428	3120.863037	1189.809448	-0.394025
286.935425	1192.187256	3173.915039	1191.890015	-0.014999
287.306824	1193.078735	3157.642578	1189.066406	-0.204235
287.678223	1195.605103	3115.438721	1184.831055	-0.561197
288.049561	1202.738159	3054.510498	1185.945679	-0.906833
288.420898	1202.663818	3007.105469	1187.060181	-0.864735
288.792145	1201.326294	2986.672119	1190.552368	-0.603464
289.163452	1192.484253	2991.799072	1192.187134	-0.016513
289.534668	1187.431641	3032.294189	1187.283203	-0.008046
289.905914	1182.304810	3074.349365	1194.193359	0.628344
290.277039	1188.769165	3150.732422	1190.626831	0.094684
290.648193	1187.060181	3225.183594	1197.908569	0.532273
291.019318	1189.214966	3303.127197	1198.354370	0.432346
291.390381	1181.859131	3336.786377	1203.629883	1.010278
291.761475	1183.865356	3328.687500	1204.447144	0.959603
292.132507	1182.825073	3301.418701	1200.286133	0.824182
292.503510	1179.852905	3267.462158	1199.691772	0.950315
292.874481	1183.493652	3247.177734	1195.976563	0.604885
293.245422	1187.134644	3249.332275	1196.571045	0.457590
293.616364	1188.992188	3284.106201	1196.348145	0.351101
293.987213	1188.620605	3327.870361	1201.177856	0.586993
294.358093	1190.106689	3409.305908	1197.982910	0.354913
294.728943	1195.902344	3496.983154	1196.719727	0.035522
295.099731	1198.800049	3603.384521	1191.369873	-0.309000
295.470490	1194.416138	3661.860596	1188.917847	-0.222833
295.841248	1192.112793	3702.355713	1191.221313	-0.035514
296.211975	1192.261475	3742.330811	1188.546387	-0.145686
296.582642	1197.313965	3815.890625	1192.781616	-0.173084
296.953308	1196.348145	3898.218018	1193.821899	-0.093500
297.323883	1190.552612	3972.149170	1196.645264	0.219034
297.694519	1186.391602	4024.384033	1197.314087	0.384867
298.065063	1191.147095	4035.455078	1195.605103	0.156734
298.435608	1195.382202	3997.709229	1200.657593	0.188250
298.806122	1196.719604	3882.242920	1196.793823	0.002764
299.176575	1197.165405	3752.212891	1199.394409	0.087239
299.547028	1196.942505	3644.473877	1191.889893	-0.206437
299.917450	1197.091187	3595.657227	1200.360474	0.136302
300.287872	1197.239746	3577.899170	1196.793945	-0.018726
300.658234	1196.719604	3559.768799	1204.595703	0.333302
301.028564	1198.577271	3535.249023	1201.177856	0.111294
301.398865	1196.125244	3521.800049	1207.642090	0.495204
301.769135	1195.605103	3506.642578	1197.982788	0.102884
302.139374	1193.524536	3519.571289	1198.131470	0.198059
302.509583	1190.923950	3534.283203	1195.976563	0.215614
302.879791	1192.038452	3539.707764	1201.549316	0.405119
303.249939	1189.958008	3516.822266	1197.091187	0.306558
303.620087	1197.982788	3488.364014	1190.552490	-0.324413
303.990173	1195.605103	3468.005127	1188.843506	-0.297553
304.360260	1195.456421	3454.110352	1192.335815	-0.138162
304.730286	1186.243042	3436.054932	1185.945679	-0.013217
305.100281	1186.763062	3434.494385	1175.617676	-0.495850
305.470276	1183.939575	3457.008057	1177.846802	-0.268042
305.840179	1185.648560	3471.051514	1187.431763	0.078026
306.210144	1186.614502	3482.791260	1201.474976	0.647183
306.579987	1194.193359	3489.404297	1198.651489	0.194236
306.949890	1200.211914	3510.134766	1201.029175	0.035380
307.319702	1197.759766	3546.765869	1200.509155	0.117045
307.689484	1193.375977	3583.545898	1204.521362	0.466301
308.059265	1188.843628	3633.922852	1205.413086	0.677666
308.429016	1189.215088	3703.395752	1203.481201	0.567426
308.798737	1191.444092	3776.807373	1201.474976	0.387987
309.168396	1191.221191	3856.682861	1205.190063	0.524069
309.538055	1188.546265	3903.790771	1205.115845	0.610243
309.907684	1185.648560	3950.378174	1200.583374	0.540191
310.277313	1187.803345	3985.821045	1189.363647	0.055765
310.646851	1196.496704	4020.371826	1194.787720	-0.060519
311.016388	1207.493530	4042.662842	1195.753540	-0.414084
311.385895	1204.372681	4044.520264	1196.422363	-0.279926
311.755371	1200.732056	4044.891602	1186.020142	-0.517268
312.124817	1194.044800	4049.498291	1190.106812	-0.137911
312.494232	1196.125244	4037.386963	1191.146973	-0.175213
312.863617	1191.890015	4016.136719	1205.041504	0.465664
313.232971	1184.236694	3975.195557	1206.007446	0.780046
313.602295	1190.032349	3947.629150	1204.967285	0.541592
313.971619	1188.694946	3945.325928	1196.942505	0.299190
314.340820	1193.450317	3949.709717	1194.341919	0.032348
314.710083	1188.174927	3985.226563	1195.679321	0.268297
315.079285	1191.444214	4022.452148	1193.747559	0.081361
315.448486	1189.809570	4070.451904	1198.354370	0.296628
315.817596	1184.608276	4078.922607	1200.063354	0.533981
316.186707	1186.094360	4034.637939	1207.939331	0.766882
316.555786	1189.140747	3955.728516	1201.475098	0.445833
316.924866	1192.187134	3873.326904	1203.852661	0.435096
317.293884	1192.261353	3826.218750	1202.663818	0.394937
317.662872	1194.193359	3804.670898	1208.459473	0.546494
318.031830	1193.970459	3821.017334	1206.156006	0.463850
318.400757	1194.119019	3837.884033	1200.583374	0.244513
