Jaz Data File
++++++++++++++++++++++++++++++++++++
Date: Fri Jun 04 16:18:17 2021
User: jaz
Dark Spectrum Present: Yes
Reference Spectrum Present: Yes
Processed Spectrum Present: Yes
Spectrometers: JAZA3586
Integration Time (usec): 40000 (JAZA3586)
Spectra Averaged: 10 (JAZA3586)
Boxcar Smoothing: 1 (JAZA3586)
Correct for Electrical Dark: No (JAZA3586)
Strobe/Lamp Enabled: Yes (JAZA3586)
Correct for Detector Non-linearity: No (JAZA3586)
Correct for Stray Light: No (JAZA3586)
Number of Pixels in Processed Spectrum: 2048
>>>>>Begin Processed Spectral Data<<<<<
W	D	R	S	P
191.335022	0.000000	0.000000	0.000000	0.000000
191.713211	302.709259	311.922791	297.508087	-56.451447
192.091385	614.260559	623.697021	608.242126	-63.778484
192.469528	925.737549	936.511475	921.725281	-37.240540
192.847641	941.043945	939.334961	939.557861	86.957146
193.225739	943.644531	952.486572	942.678528	-10.925118
193.603790	944.016113	964.152100	944.536133	2.582538
193.981842	948.622864	970.021973	943.941833	-21.874884
194.359863	958.876648	966.455505	951.892090	-92.158455
194.737854	973.662903	971.953857	956.127258	1026.049072
195.115829	975.297607	974.554504	966.826904	1139.909668
195.493774	979.532715	978.195313	967.644348	888.914734
195.871704	981.613220	970.690735	972.622620	82.312775
196.249603	985.922791	974.554504	967.049988	166.012741
196.627457	980.721680	972.399658	965.861145	178.568802
197.005310	977.675293	975.000305	963.483398	530.540527
197.383133	973.142761	974.108704	960.659912	-1292.297485
197.760910	981.613220	970.913757	971.730957	92.362236
198.138687	975.669006	967.867249	963.260559	159.046814
198.516449	972.771179	966.158203	963.632019	138.200409
198.894180	962.220215	971.582336	950.257507	-127.777740
199.271866	966.083984	966.381104	958.728027	-2475.760010
199.649536	964.152161	962.591736	964.152100	0.003911
200.027191	959.545410	962.071594	965.415222	232.358841
200.404816	956.053040	967.272888	969.576172	120.528648
200.782410	950.777649	981.687683	973.439941	73.316940
201.159988	955.755920	997.811279	984.511047	68.374466
201.537537	953.303955	1012.523193	990.306641	62.484230
201.915070	964.523621	1007.321960	984.511047	46.701408
202.292557	958.282227	998.182678	981.910461	59.217964
202.670029	960.659912	993.501648	979.012695	55.882500
203.047485	948.771484	991.049622	983.099304	81.195206
203.424911	953.303955	989.563660	988.151855	96.106407
203.802292	955.904541	989.340637	990.306641	102.889107
204.179688	961.254333	992.015625	991.198303	97.343018
204.557037	959.768250	994.764832	983.545166	67.940681
204.934357	958.653748	996.176575	981.093079	59.801815
205.311661	961.848694	999.074402	977.377930	41.716427
205.688934	962.294617	996.993958	974.851746	36.188377
206.066177	960.362732	998.405701	974.182922	36.327843
206.443390	955.681641	1001.600647	975.446106	43.042015
206.820587	951.743591	1001.600647	982.356262	61.400879
207.197769	950.331848	991.272644	979.235535	70.598740
207.574921	950.480286	994.319031	972.994141	51.356068
207.952042	943.793152	992.387024	966.975586	47.706497
208.329147	939.112061	993.353027	963.632019	45.205608
208.706223	954.492676	992.535706	978.789734	63.867306
209.083267	968.535889	993.724609	976.412048	31.268597
209.460297	972.102356	994.021790	977.675110	25.423805
209.837280	954.715576	986.740051	972.771179	56.380638
210.214264	943.644531	987.334473	978.343933	79.421944
210.591217	945.204895	989.563660	980.721619	80.066978
210.968124	945.873596	985.402649	977.972412	81.203102
211.345016	956.870422	987.260254	979.235535	73.594063
211.721893	954.938660	991.495605	973.811523	51.625931
212.098724	953.824036	997.439758	976.783630	52.640636
212.475555	952.560852	995.210632	973.068542	48.083931
212.852356	950.480408	987.928955	984.213867	90.079491
213.229126	952.858093	983.990906	981.539001	92.124374
213.605865	942.678528	983.247864	980.350098	92.857254
213.982590	943.124451	986.219971	968.164368	58.103294
214.359283	946.319519	983.247864	969.278992	62.173035
214.735931	942.381409	982.727783	970.170593	68.876534
215.112579	937.700378	985.105469	977.972412	84.952972
215.489197	934.876770	988.895020	968.981750	63.136036
215.865799	950.108887	995.507813	969.947754	43.698978
216.242355	955.755859	994.913391	966.752686	28.083553
216.618896	955.012878	990.455261	971.805237	47.379314
216.995407	939.557922	978.715393	971.433777	81.404274
217.371902	937.105957	977.898132	968.461670	76.866982
217.748367	939.409363	982.579163	974.405945	81.067276
218.124802	948.622864	984.511047	968.684570	55.900589
218.501236	951.966492	989.637939	968.833191	44.773163
218.877609	951.297852	990.009460	966.009705	38.003723
219.253983	951.817932	995.804993	974.331604	51.182487
219.630295	947.285339	992.387146	977.303711	66.556915
220.006592	949.068604	994.839111	974.851746	56.331345
220.382889	951.743591	992.164246	968.312988	40.992401
220.759140	955.087158	987.706116	968.684570	41.685612
221.135391	945.427795	989.712219	975.594666	68.120728
221.511581	942.158447	992.015625	981.613220	79.135590
221.887772	938.889160	997.216797	979.384094	69.426666
222.263931	945.873718	998.108459	973.217041	52.347004
222.640060	939.780823	1005.538757	966.232605	40.225994
223.016159	939.037842	1010.888489	970.913635	44.363960
223.392212	940.895447	1009.328125	971.210754	44.299461
223.768265	952.858093	1001.303467	974.777405	45.245419
224.144302	959.916809	992.758728	964.746521	14.705937
224.520294	958.802246	991.569824	965.192383	19.501400
224.896286	952.635193	994.467590	970.096375	41.740810
225.272217	952.040710	993.724609	974.926025	54.902050
225.648148	951.372009	997.439758	981.538879	65.483711
226.024048	950.926208	997.291199	973.588562	48.878159
226.399902	953.824036	999.817383	975.891907	47.980572
226.775772	953.303894	991.123962	967.718567	38.113819
227.151581	948.399902	991.346863	969.873352	49.999928
227.527374	942.158447	984.213806	965.563782	55.653633
227.903137	933.019226	987.185852	966.529785	61.865692
228.278870	942.530029	990.529541	972.845459	63.157787
228.654572	943.718811	999.074402	972.994141	52.885948
229.030273	953.972595	997.737000	976.709229	51.952343
229.405930	950.406067	990.232422	978.789734	71.268555
229.781555	946.542419	990.604004	986.145691	89.881630
230.157181	940.598145	997.142578	982.876404	74.769974
230.532761	937.328857	994.541992	979.086914	72.986839
230.908325	939.483643	988.895020	976.040527	73.984749
231.283859	943.124451	983.545166	979.755676	90.624886
231.659332	947.582581	991.495422	972.102478	55.837646
232.034821	944.387512	996.102234	975.743347	60.632320
232.410263	942.307129	995.656433	974.554443	60.445614
232.785690	948.028503	986.517151	982.653503	89.961594
233.161087	957.464844	984.213806	976.412048	70.833420
233.536469	955.978821	984.065247	968.907410	46.031448
233.911804	957.019104	987.111633	964.226379	23.950380
234.287140	958.579407	999.148682	968.610352	24.725471
234.662430	965.861084	1005.687256	977.601013	29.477926
235.037704	955.384338	1002.566650	978.641174	49.291428
235.412933	951.074768	990.901123	977.823914	67.164436
235.788162	940.449524	984.956848	976.263489	80.467575
236.163345	944.090393	994.096130	975.297546	62.407146
236.538513	943.495911	1003.978333	977.377991	56.019714
236.913635	949.737488	1009.551086	983.842285	57.018467
237.288742	943.718933	1006.281738	982.281982	61.638939
237.663834	935.396973	1004.869934	980.350098	64.705933
238.038879	934.728271	1003.532532	973.737122	56.695400
238.413910	935.025452	1013.266174	975.817627	52.136757
238.788910	941.861328	1008.956543	970.319275	42.414272
239.163879	935.248352	1011.185730	971.062256	47.162418
239.538834	939.260681	999.445862	971.433777	53.456841
239.913757	935.917053	1003.978333	982.876282	68.995514
240.288651	949.663086	1002.640930	984.436707	65.638046
240.663528	954.864258	1010.442688	987.185974	58.155144
241.038361	959.991150	1009.551086	982.727783	45.877045
241.413177	955.161438	1004.795715	978.864075	47.754574
241.787979	953.452454	1000.709167	975.891907	47.484158
242.162735	954.789856	996.845398	977.749512	54.593651
242.537476	952.932373	1002.417969	980.498718	55.705795
242.912170	953.601074	1010.888489	984.882568	54.604477
243.286865	954.195557	1017.352783	978.789734	38.941193
243.661514	955.755859	1018.393066	980.201477	39.027309
244.036148	951.594910	1016.758484	979.458496	42.759449
244.410751	952.560852	1018.838928	986.963074	51.905884
244.785339	947.805481	1021.885315	982.281921	46.539577
245.159882	951.669250	1014.529297	986.294250	55.082684
245.534378	944.684875	1009.179504	986.665833	65.092178
245.908890	950.183167	1006.058838	993.427429	77.393723
246.283356	946.913879	1007.842102	996.548157	81.463524
246.657791	945.650696	1010.591309	988.894958	66.590477
247.032196	938.740540	1018.170105	987.706055	61.646461
247.406586	931.013123	1030.132935	981.613220	51.049427
247.780960	936.139954	1043.581665	982.727783	43.361027
248.155289	939.929382	1048.634277	977.972351	34.996555
248.529602	944.090332	1046.405151	978.789734	33.914345
248.903870	940.895325	1037.711792	976.263367	36.531017
249.278122	938.146179	1027.755249	975.966248	42.205624
249.652344	946.096497	1018.467468	969.650574	32.546307
250.026550	953.675476	1008.882385	970.393555	30.282583
250.400711	960.139709	1010.591309	970.839355	21.207745
250.774857	949.068665	1017.947266	976.337708	39.590008
251.148987	933.465088	1023.371399	981.539001	53.471123
251.523071	925.737610	1020.919434	977.675293	54.566807
251.897125	937.626038	1020.845032	974.628723	44.464230
252.271164	945.650696	1019.284668	971.656738	35.317993
252.645187	950.703308	1023.222839	976.040466	34.938393
253.019165	939.632263	1026.120605	971.730957	37.113319
253.393112	942.678650	1034.814087	973.291321	33.225731
253.767044	951.223450	1036.968750	968.461731	20.104053
254.140930	957.093445	1030.950317	980.572998	31.790613
254.514801	951.297791	1028.646851	987.631775	46.974049
254.888657	942.158508	1032.510620	990.232361	53.207226
255.262466	941.564148	1041.129761	979.309875	37.910404
255.636276	942.009827	1040.832520	970.690735	29.022593
256.010010	945.204895	1040.758179	968.090149	23.950254
256.383759	944.238953	1037.043091	966.752625	24.259340
256.757446	952.337891	1043.730347	967.198486	16.260199
257.131134	948.325623	1045.142090	976.783630	29.393768
257.504791	948.399902	1056.436035	986.740051	35.488266
257.878418	945.130615	1054.652832	992.832947	43.554935
258.252014	952.040710	1057.253418	990.455261	36.511322
258.625580	957.687805	1056.956177	987.260254	29.790403
258.999115	954.344177	1066.244141	983.470764	26.029129
259.372650	953.303894	1078.132446	981.687500	22.738071
259.746124	949.514465	1091.729858	983.693665	24.033403
260.119598	957.093323	1097.896973	976.634949	13.878636
260.493042	952.115051	1107.407715	976.486328	15.693772
260.866425	953.006653	1109.711182	975.669006	14.461837
261.239838	949.811707	1114.020752	984.436768	21.085964
261.613159	944.610535	1108.299438	987.037354	25.919178
261.986511	936.808777	1103.023926	987.408875	30.442532
262.359802	935.248352	1095.593628	985.774170	31.510637
262.733063	943.867493	1088.311890	990.975342	32.613136
263.106293	951.520691	1089.203613	993.798889	30.706930
263.479523	948.919983	1095.370605	994.764832	31.303963
263.852692	940.523743	1094.776245	993.055847	34.055916
264.225861	938.220398	1090.466797	983.470703	29.721758
264.598969	947.731140	1081.773438	988.597717	30.487822
264.972076	949.811707	1083.630981	979.607117	22.265409
265.345154	948.771484	1081.104614	977.080750	21.392426
265.718201	944.164734	1089.277954	970.542175	18.177145
266.091217	949.143005	1100.348999	979.681396	20.196548
266.464203	948.399963	1106.739136	983.842346	22.383837
266.837158	945.502136	1116.695557	979.309875	19.748270
267.210114	938.666260	1120.113525	977.006592	21.130289
267.583038	943.793152	1134.676758	980.647400	19.307184
267.955902	948.622803	1136.757324	988.449158	21.169085
268.328766	956.647461	1131.779053	986.071472	16.801086
268.701569	952.263611	1130.292969	982.653503	17.070158
269.074371	947.879700	1143.964722	979.309875	16.028851
269.447144	949.440186	1153.698364	982.133362	16.005810
269.819885	950.554749	1159.494019	989.935120	18.847759
270.192596	948.177063	1156.893433	986.740051	18.476265
270.565277	940.449524	1168.410278	987.111633	20.469360
270.937927	942.307129	1185.128418	980.350098	15.667065
271.310577	942.604309	1205.561646	986.294250	16.614840
271.683136	948.548523	1221.165161	988.003235	14.472599
272.055725	949.960266	1232.161987	996.250793	16.403347
272.428284	952.263672	1236.917480	996.102295	15.400681
272.800812	951.817871	1244.273315	991.495605	13.567104
273.173279	947.582703	1239.740845	986.294373	13.250245
273.545776	953.675476	1235.802856	985.699951	11.351069
273.918152	952.189453	1229.338501	989.266418	13.377988
274.290558	944.684814	1225.028931	987.631836	15.319395
274.662964	938.666321	1226.812134	986.294434	16.529171
275.035278	939.112122	1221.759644	987.260254	17.034691
275.407593	940.821045	1228.149658	986.591553	15.929673
275.779907	948.697205	1232.607910	983.619385	12.300409
276.152161	947.434021	1244.942017	978.715515	10.514505
276.524384	959.248108	1255.270142	970.690735	3.865465
276.896606	948.177063	1259.431152	977.823730	9.524909
277.268799	948.994324	1266.861450	976.783508	8.742391
277.640930	946.690918	1262.254517	988.449036	13.232869
278.013031	942.827148	1269.313354	988.523438	13.996392
278.385162	942.752869	1267.752930	984.733948	12.917253
278.757233	945.799316	1281.870483	990.678162	13.353971
279.129272	952.040771	1280.607300	992.535645	12.324711
279.501282	953.452454	1287.889038	1002.195007	14.574528
279.873230	943.644531	1300.297729	1000.114563	15.833317
280.245178	944.981995	1317.164429	997.365417	14.074663
280.617126	941.489746	1335.071289	992.089905	12.856335
280.988983	945.576416	1340.049683	986.963074	10.491626
281.360870	949.365906	1364.792358	988.820618	9.497400
281.732697	946.616699	1386.340210	988.820618	9.597831
282.104492	947.582703	1414.203735	987.260254	8.503164
282.476288	945.947937	1431.070435	983.024963	7.642817
282.848053	946.542297	1431.962036	987.408752	8.418787
283.219757	947.582520	1432.853638	988.300476	8.390764
283.591461	944.238953	1426.835083	988.374695	9.145482
283.963135	951.372009	1433.596680	986.591492	7.303542
284.334747	951.669189	1433.893921	983.768005	6.656402
284.706360	948.028381	1443.553223	979.384094	6.327778
285.077942	947.359680	1460.717163	982.059082	6.759306
285.449524	943.273132	1486.203125	987.111633	8.074430
285.821014	947.434021	1500.171875	993.724609	8.374782
286.192535	944.238953	1528.555664	985.328369	7.032045
286.563995	944.907715	1542.004395	985.551270	6.806863
286.935425	949.960266	1561.694702	981.241699	5.113564
287.306824	950.703308	1560.654297	984.585388	5.554886
287.678223	949.365906	1551.515015	988.077637	6.428928
288.049561	940.523865	1535.465820	998.479980	9.741474
288.420898	934.059570	1525.880737	996.102356	10.483367
288.792145	936.214294	1527.812500	994.021790	9.771412
289.163452	940.077942	1538.512207	985.997131	7.673222
289.534668	941.861267	1550.549194	994.096130	8.581551
289.905914	935.471252	1582.127808	996.696716	9.468003
290.277039	933.910889	1609.248413	1002.120789	10.100120
290.648193	939.780823	1636.294434	993.798828	7.755485
291.019318	945.873718	1641.569946	985.031067	5.628512
291.390381	950.108887	1657.990845	980.201477	4.251075
291.761475	951.743591	1652.864136	983.916565	4.588793
292.132507	954.418457	1653.458496	979.161194	3.539531
292.503510	957.390564	1632.876587	979.012634	3.200965
292.874481	956.721863	1629.161499	983.396484	3.966843
293.245422	957.687805	1626.560913	992.164246	5.154407
293.616364	952.189453	1642.907593	993.278809	5.948788
293.987213	954.567078	1657.025024	982.059082	3.913687
294.358093	941.935608	1692.690308	979.904297	5.057403
294.728943	944.684814	1731.104858	975.297546	3.892669
295.099731	941.043945	1775.017700	981.093079	4.802206
295.470490	947.433899	1808.602539	977.675110	3.511648
295.841248	939.780762	1822.497070	981.464600	4.722224
296.211975	939.855164	1834.905640	987.334473	5.304652
296.582642	943.198730	1861.654785	999.148682	6.091740
296.953308	946.839600	1899.697754	1002.863770	5.879592
297.323883	950.703369	1949.629272	1006.504700	5.586133
297.694519	953.601135	1959.585571	1007.247620	5.332735
298.065063	954.195557	1963.598022	1015.346619	6.058145
298.435608	946.988098	1941.455688	1011.334290	6.470416
298.806122	939.483582	1913.815063	1007.396240	6.970180
299.176575	938.369080	1872.205688	998.034119	6.389237
299.547028	936.288574	1846.274048	993.798889	6.319916
299.917450	940.821045	1821.456909	994.244690	6.066485
300.287872	943.495911	1814.100952	996.102295	6.042509
300.658234	949.440186	1806.819214	993.204407	5.104419
301.028564	955.904541	1813.432129	991.198242	4.115751
301.398865	950.703308	1820.639648	988.746338	4.373082
301.769135	945.502136	1812.466309	991.495422	5.305097
302.139374	942.901550	1813.580933	992.758606	5.726224
302.509583	942.307129	1814.249512	996.102234	6.169571
302.879791	951.743469	1815.661255	994.096130	4.902395
303.249939	952.189392	1817.147339	994.319031	4.870715
303.620087	951.817871	1814.843750	987.631836	4.149814
303.990173	943.570313	1811.500366	991.198242	5.487531
304.360260	938.517761	1808.676758	988.077637	5.695497
304.730286	946.022278	1810.608765	994.690613	5.629088
305.100281	949.960266	1819.599121	997.662659	5.485311
305.470276	947.433899	1824.503296	998.925781	5.870902
305.840179	944.981934	1834.682617	996.473816	5.787551
306.210144	935.768372	1849.171753	999.891785	7.020273
306.579987	937.774597	1861.060181	1000.857666	6.832455
306.949890	943.347351	1866.855835	1005.613037	6.742297
307.319702	951.149231	1870.125122	1001.897888	5.522305
307.689484	954.864441	1895.759766	1000.931946	4.896135
308.059265	950.851990	1914.261108	1002.120850	5.321609
308.429016	948.622803	1952.898438	998.925781	5.008882
308.798737	941.712646	1978.087036	999.966003	5.620880
309.168396	942.009949	2013.306519	994.839172	4.931335
309.538055	936.808777	2036.563477	1003.383972	6.053641
309.907684	941.638367	2059.820068	1006.430359	5.794407
310.277313	935.619812	2080.922119	1007.916504	6.312455
310.646851	946.765320	2104.996094	997.662598	4.394399
311.016388	944.610535	2121.194092	992.090027	4.035369
311.385895	946.988220	2124.834961	998.331360	4.359068
311.755371	943.495911	2118.816406	1002.863770	5.051206
312.124817	941.638367	2125.503418	1005.613037	5.403883
312.494232	946.839539	2122.085449	1001.229187	4.627938
312.863617	943.198730	2120.896729	1005.613098	5.299692
313.232971	947.359680	2105.293213	1003.458252	4.844714
313.602295	947.136719	2111.757568	999.520203	4.497900
313.971619	957.167664	2120.822510	1001.452087	3.805632
314.340820	957.241943	2122.383057	1010.665710	4.585176
314.710083	951.297791	2133.454346	1018.467468	5.681962
315.079285	946.319397	2145.937012	1013.043274	5.562095
315.448486	945.576416	2182.270752	1015.346680	5.641674
315.817596	948.474182	2189.180908	1015.569641	5.407842
316.186707	943.941711	2180.710205	1015.941162	5.821579
316.555786	950.257507	2142.741943	1006.801941	4.741734
316.924866	949.960266	2113.243896	996.919617	4.036793
317.293884	952.337952	2093.702148	1000.188965	4.192440
317.662872	943.198730	2086.494873	998.851501	4.867748
318.031830	938.517578	2089.095459	1006.950500	5.947700
318.400757	938.889160	2103.064453	1010.591309	6.159051
318.769684	944.016113	2119.039307	1017.872986	6.285567
319.138550	945.799316	2142.593018	1018.467468	6.071903
319.507416	944.833435	2152.921143	1016.684143	5.947475
319.876190	942.901550	2158.419922	1021.662415	6.479611
320.244995	947.136780	2165.032959	1031.544678	6.930631
320.613770	954.567078	2154.853271	1034.219604	6.636128
320.982483	956.721863	2146.754150	1034.516724	6.537206
321.351166	954.418457	2119.410889	1030.727417	6.550168
321.719818	949.068604	2111.237549	1035.631348	7.448379
322.088440	949.142883	2119.262451	1035.557007	7.385067
322.457062	948.102722	2138.729736	1039.420776	7.669745
322.825623	949.068665	2164.884033	1043.433228	7.761422
323.194183	948.474304	2192.450439	1050.491821	8.200923
323.562653	948.399963	2229.676025	1056.213257	8.414524
323.931183	944.759094	2267.793213	1061.265747	8.806020
