Jaz Data File
++++++++++++++++++++++++++++++++++++
Date: Fri Jun 04 16:36:07 2021
User: jaz
Dark Spectrum Present: Yes
Reference Spectrum Present: Yes
Processed Spectrum Present: Yes
Spectrometers: JAZA3586
Integration Time (usec): 40000 (JAZA3586)
Spectra Averaged: 10 (JAZA3586)
Boxcar Smoothing: 1 (JAZA3586)
Correct for Electrical Dark: No (JAZA3586)
Strobe/Lamp Enabled: Yes (JAZA3586)
Correct for Detector Non-linearity: No (JAZA3586)
Correct for Stray Light: No (JAZA3586)
Number of Pixels in Processed Spectrum: 2048
>>>>>Begin Processed Spectral Data<<<<<
W	D	R	S	P
191.335022	0.000000	0.000000	0.000000	0.000000
191.713211	235.539627	237.917343	237.248581	71.873756
192.091385	476.280426	474.943024	479.772705	-261.124054
192.469528	722.668274	719.027527	723.857117	-32.653812
192.847641	729.504150	732.847717	727.200745	-68.890671
193.225739	737.825989	749.268555	732.401855	-47.403122
193.603790	744.141785	755.807312	735.596924	-73.248817
193.981842	754.246887	753.429626	744.661865	1172.822998
194.359863	759.968262	752.612305	755.435730	61.617161
194.737854	758.482239	759.225281	760.711243	299.983582
195.115829	763.088928	769.701965	763.980530	13.482482
195.493774	763.534851	771.782410	756.698975	-82.883636
195.871704	769.627625	772.451172	753.949707	-555.256042
196.249603	763.683411	763.757629	758.779480	-6607.401367
196.627457	755.881592	764.500671	762.122986	72.413696
197.005310	756.401672	763.386169	764.723572	119.148155
197.383133	756.104492	766.283936	761.305603	51.094257
197.760910	762.717468	769.256042	764.352051	24.999067
198.138687	758.259277	768.958801	770.667786	115.972527
198.516449	763.609070	776.314758	773.045471	74.269104
198.894180	757.962097	772.822571	767.918640	67.000175
199.271866	760.191101	764.797913	756.030212	-90.320358
199.649536	755.212891	757.367676	753.652527	-72.413887
200.027191	756.401672	762.345886	753.132324	-55.000515
200.404816	749.565857	763.014648	760.488342	81.215370
200.782410	748.302734	770.965027	765.838196	77.377258
201.159988	756.550293	771.633789	773.714294	113.793259
201.537537	759.448059	786.419983	775.348938	58.953445
201.915070	757.516296	790.209473	774.234375	51.136295
202.292557	752.389343	789.912292	775.720398	62.178093
202.670029	759.893982	793.181458	778.172424	54.910870
203.047485	755.361389	786.122803	771.782410	53.381878
203.424911	751.646301	790.432373	764.352112	32.758694
203.802292	742.507080	787.608887	760.562683	40.032993
204.179688	745.924988	791.101074	765.318054	42.927727
204.557037	746.890869	787.311707	767.472839	50.919209
204.934357	749.045715	786.122803	771.856689	61.523102
205.311661	749.120056	783.076355	768.290100	56.455044
205.688934	746.222229	785.008301	763.757629	45.210560
206.066177	740.203613	777.949524	759.893982	52.165569
206.443390	738.494690	772.971191	763.386169	72.198395
206.820587	739.534973	766.655457	764.426331	91.780655
207.197769	743.175781	775.125977	763.906250	64.883698
207.574921	747.485352	779.955627	760.562683	40.274776
207.952042	749.714539	777.355042	755.955872	22.580389
208.329147	745.702087	779.584167	758.705078	38.377190
208.706223	752.983826	793.553040	779.063965	64.285545
209.083267	749.342957	799.200012	783.967957	69.448547
209.460297	759.225159	798.754211	779.658508	51.691978
209.837280	752.760803	787.460205	760.637024	22.698433
210.214264	747.411133	791.175354	764.277832	38.539928
210.591217	738.271912	781.293152	757.441895	44.559345
210.968124	733.070618	783.596497	756.921814	47.205902
211.345016	739.832214	783.150696	748.822754	20.754513
211.721893	738.346130	781.887512	751.646301	30.546047
212.098724	740.129395	780.104309	750.977539	27.137381
212.475555	743.547302	774.605896	754.321228	34.689034
212.852356	740.055115	774.828796	753.875305	39.743248
213.229126	738.866272	775.794678	755.658691	45.472908
213.605865	737.454529	767.844238	753.875427	54.034405
213.982590	742.061340	767.844238	753.058105	42.651394
214.359283	746.890930	760.042480	750.308838	25.988630
214.735931	741.169678	767.770020	746.147949	18.715065
215.112579	745.479187	770.221985	748.674255	12.913125
215.489197	737.083008	771.782410	745.256348	23.554699
215.865799	736.637207	775.646057	748.748535	31.047642
216.242355	728.092285	773.491272	750.383118	49.099846
216.618896	734.110840	778.915344	754.841309	46.268715
216.995407	735.968445	770.816406	758.184998	63.752804
217.371902	738.271790	773.342773	759.745300	61.228710
217.748367	735.522644	765.392334	761.900085	88.308388
218.124802	740.426575	775.125977	758.630798	52.462643
218.501236	746.147949	772.005310	758.110657	46.264225
218.877609	748.079773	777.652344	753.875427	19.598074
219.253983	741.095276	769.553284	758.184998	60.052418
219.630295	736.934387	769.107422	757.887756	65.127113
220.006592	736.934387	763.460449	757.367676	77.030991
220.382889	739.237793	764.797852	752.092102	50.290607
220.759140	737.231628	767.992920	752.760925	50.483242
221.135391	739.609314	776.389160	755.064209	42.020008
221.511581	742.729980	777.949524	752.909485	28.903000
221.887772	746.147949	781.218811	748.674133	7.203085
222.263931	749.194275	777.280762	744.438965	-16.930954
222.640060	748.154053	779.286926	746.445129	-5.489128
223.016159	747.633972	780.921631	750.606140	8.928739
223.392212	738.866211	789.243469	755.361511	32.743546
223.768265	736.414246	790.135071	763.088928	49.654266
224.144302	738.049011	788.574707	758.110657	39.705826
224.520294	744.884766	777.652283	757.144714	37.414948
224.896286	750.606140	781.293030	751.720642	3.631850
225.272217	750.531738	777.875183	755.584412	18.478554
225.648148	752.017822	774.382996	755.881531	17.275558
226.024048	741.987000	776.314880	759.373779	50.649151
226.399902	738.420410	786.419983	755.584290	35.758400
226.775772	739.832214	798.828613	752.389343	21.284569
227.151581	749.194336	795.261963	751.126221	4.193584
227.527374	748.154114	792.438477	746.965332	-2.684428
227.903137	747.411072	788.574707	741.987000	-13.176854
228.278870	742.061279	788.054688	742.952942	1.938675
228.654572	749.417236	785.454102	752.983704	9.896719
229.030273	740.352356	787.980408	757.441895	35.881245
229.405930	741.987000	786.048523	750.457520	19.224300
229.781555	729.652649	782.184814	747.931213	34.794994
230.157181	729.652771	788.574768	749.342957	33.417377
230.532761	730.470032	785.602600	755.658691	45.687443
230.908325	736.934387	786.345642	752.092102	30.676643
231.283859	737.305908	782.779114	751.349121	30.882391
231.659332	739.683594	790.357971	752.389343	25.073322
232.034821	743.547363	794.964783	752.835144	18.063490
232.410263	747.931152	789.837891	749.268616	3.191524
232.785690	743.695984	781.961853	744.438965	1.941628
233.161087	739.460693	775.423157	745.330566	16.322222
233.536469	736.562805	766.655518	747.188171	35.308769
233.911804	730.915833	767.547180	747.113953	44.219284
234.287140	736.562805	766.135437	743.621643	23.869495
234.662430	739.832214	780.995911	751.869324	29.242052
235.037704	753.206726	784.933899	750.457520	-8.665148
235.412933	751.349121	791.546875	756.698914	13.308685
235.788162	750.308899	786.642883	752.017883	4.703542
236.163345	744.438965	786.865784	752.983704	20.139946
236.538513	742.209961	784.636780	745.553528	7.880786
236.913635	737.008728	790.580994	747.188171	19.001331
237.288742	735.522644	793.330139	749.937439	24.935858
237.663834	736.488586	791.621155	761.974426	46.226471
238.038879	739.237793	782.779114	758.630859	44.539455
238.413910	737.974609	784.190918	767.547180	63.987305
238.788910	742.878601	789.540710	769.181824	56.369553
239.163879	738.271790	791.175354	774.531555	68.539360
239.538834	739.312073	782.110413	766.432556	63.368073
239.913757	733.665039	779.955627	763.980530	65.489532
240.288651	734.556641	781.664612	759.522400	52.996891
240.663528	735.299744	789.615051	755.584290	37.345909
241.038361	735.002441	788.500488	752.835144	33.333370
241.413177	736.562805	784.933899	752.092102	32.104500
241.787979	730.915833	787.460266	756.773254	45.729385
242.162735	731.807556	795.187744	766.581238	54.865223
242.537476	737.677429	801.503479	769.627625	50.058235
242.912170	747.485352	795.336365	776.240540	60.093163
243.286865	745.999329	787.608887	770.816406	59.642735
243.661514	738.346191	784.785339	772.079590	72.639999
244.036148	737.677429	786.791504	762.271667	50.075745
244.410751	740.203796	798.308411	755.287292	25.959206
244.785339	742.135559	805.070007	749.937439	12.396835
245.159882	738.271790	801.577698	751.869324	21.479092
245.534378	739.980774	800.686218	760.488342	33.782089
245.908890	746.668152	793.776062	759.596680	27.444494
246.283356	744.736267	794.073242	754.915588	20.632236
246.657791	742.581360	791.026794	753.949707	23.466291
247.032196	737.008728	799.943115	753.206726	25.737913
247.406586	736.637207	811.905823	769.256042	43.336567
247.780960	730.395813	814.506348	759.596680	34.717251
248.155289	731.733215	806.258789	768.067200	48.753712
248.529602	733.813660	798.308411	755.584290	33.755661
248.903870	740.278015	786.568604	759.299500	41.091473
249.278122	738.791992	788.946289	753.949707	30.222166
249.652344	736.340027	792.958679	756.104492	34.908047
250.026550	736.860046	800.686096	761.082764	37.951145
250.400711	735.225403	797.491028	756.178894	33.651779
250.774857	737.603210	794.147461	755.138611	31.011818
251.148987	740.278076	789.466492	750.160339	20.090631
251.523071	739.460693	794.296082	755.584412	29.403856
251.897125	737.603027	798.531311	758.110657	33.658638
252.271164	731.733154	807.967773	763.014648	41.033188
252.645187	740.055115	813.837708	764.203430	32.729015
253.019165	733.070618	810.642761	770.667786	48.467358
253.393112	741.689758	814.506409	768.810242	37.244892
253.767044	735.894104	814.060608	766.135315	38.688198
254.140930	745.330627	812.500244	759.819580	21.570694
254.514801	735.745605	799.868835	762.791687	42.178291
254.888657	737.677429	787.088684	772.822571	71.127808
255.262466	742.284180	784.859680	769.181824	63.176342
255.636276	744.067566	790.358093	764.054871	43.177959
256.010010	745.702148	804.921387	759.299500	22.961037
256.383759	740.129395	811.608643	764.946533	34.719360
256.757446	741.318176	819.038879	768.141541	34.512508
257.131134	739.534973	811.608643	763.014648	32.577328
257.504791	738.791931	810.419739	759.373840	28.734524
257.878418	735.968445	807.001892	750.606140	20.606764
258.252014	736.860046	812.500244	754.990051	23.968744
258.625580	739.906433	824.908875	755.064270	17.832237
258.999115	740.946716	831.521729	763.311829	24.692364
259.372650	738.643311	845.564941	763.683350	23.419058
259.746124	738.271790	855.224304	765.243713	23.062286
260.119598	736.637207	866.815613	758.110657	16.495401
260.493042	740.426575	865.255188	757.218994	13.452380
260.866425	737.528809	863.100403	754.692688	13.668600
261.239838	736.860107	855.298645	760.785583	20.200752
261.613159	735.076843	852.549500	762.866028	23.655874
261.986511	737.825989	845.490723	763.980652	24.292692
262.359802	738.569031	840.883972	759.893860	20.842340
262.733063	743.250061	833.007874	759.745361	18.377565
263.106293	739.832214	827.137878	764.946533	28.765968
263.479523	743.027283	830.555847	767.027039	27.419342
263.852692	730.915833	832.339050	764.500732	33.113621
264.225861	734.779602	835.162598	758.630798	23.760197
264.598969	737.305847	835.459778	762.643127	25.813822
264.972076	739.386414	831.967529	770.593506	33.707836
265.345154	737.900330	834.791016	775.571777	38.880360
265.718201	734.928223	831.224548	770.965027	37.422825
266.091217	743.250061	844.004578	762.122986	18.731592
266.464203	745.479187	848.462708	755.584290	9.812349
266.837158	748.897156	856.710388	758.556458	8.959291
267.210114	748.302734	861.614258	760.191162	10.491808
267.583038	750.234558	873.502747	760.488342	8.318273
267.955902	750.160217	871.793762	756.327454	5.070342
268.328766	748.599915	872.611145	750.903320	1.857417
268.701569	746.965149	867.187012	748.005554	0.865404
269.074371	742.284180	875.806152	749.714539	5.564896
269.447144	740.203674	877.960938	755.361511	11.003294
269.819885	735.596924	887.323059	754.023987	12.144950
270.192596	739.757874	894.456116	748.302734	5.523567
270.565277	736.117004	908.425049	749.863037	7.977592
270.937927	743.101501	912.214539	763.980530	12.346197
271.310577	740.723816	925.143250	771.336487	16.599482
271.683136	741.838379	932.424866	769.553223	14.541872
272.055725	738.049011	938.963440	759.968262	10.909744
272.428284	739.683594	933.093567	751.869324	6.300466
272.800812	742.878662	935.174072	748.079834	2.704782
273.173279	745.702148	932.722107	753.875427	4.370271
273.545776	740.723816	938.369141	767.621399	13.609015
273.918152	734.036621	933.093567	768.587341	17.357204
274.290558	732.624817	937.774597	762.940369	14.777277
274.662964	738.197510	924.251526	757.813477	10.543157
275.035278	743.175781	919.793396	762.568848	10.980256
275.407593	738.940613	919.867737	761.900085	12.689900
275.779907	742.432800	933.910950	762.271667	10.360904
276.152161	741.689758	951.594971	763.609070	10.442481
276.524384	744.290344	957.316223	768.438782	11.335917
276.896606	744.513245	964.895081	762.420227	8.125435
277.268799	755.064270	969.724792	763.906250	4.119053
277.640930	753.652527	977.823792	762.122986	3.778566
278.013031	750.754700	979.532776	765.838135	6.593042
278.385162	744.141785	973.885742	753.652527	4.139714
278.757233	754.246887	974.851746	753.206726	-0.471504
279.129272	752.537903	983.990906	757.070374	1.958268
279.501282	757.516296	996.548096	759.745300	0.932514
279.873230	748.897156	998.702881	758.927917	4.015425
280.245178	742.730042	997.588379	755.510071	5.014562
280.617126	735.596985	1010.219788	759.670959	8.766196
280.988983	735.819824	1028.126831	762.271545	9.049294
281.360870	743.918884	1047.891235	763.683350	6.502060
281.732697	743.993164	1054.429810	763.609070	6.318811
282.104492	744.661865	1068.918823	757.293274	3.895494
282.476288	736.191406	1091.952759	753.652527	4.908099
282.848053	738.866211	1104.732788	749.863037	3.005693
283.219757	736.785828	1101.983643	750.606140	3.784336
283.591461	740.129395	1097.451172	760.488342	5.697651
283.963135	741.764160	1095.667969	766.952698	7.117340
284.334747	738.049011	1104.955811	771.336487	9.072461
284.706360	740.575195	1105.550293	766.061035	6.982898
285.077942	738.494812	1118.181641	765.540833	7.123244
285.449524	743.250183	1134.453979	773.342712	7.692290
285.821014	737.603088	1153.846924	771.187927	8.068549
286.192535	740.055176	1171.382446	768.958801	6.701089
286.563995	737.751709	1191.072632	758.407898	4.556637
286.935425	747.708252	1201.772217	760.636902	2.847319
287.306824	750.160217	1196.273804	758.259277	1.815470
287.678223	754.767029	1184.979858	761.974365	1.675296
288.049561	752.983704	1178.441162	756.847473	0.908145
288.420898	748.376953	1175.097534	764.203430	3.708862
288.792145	749.937317	1180.521606	765.986755	3.727363
289.163452	750.977600	1175.469116	766.804016	3.728323
289.534668	748.897156	1186.243042	765.169434	3.720688
289.905914	748.599915	1198.057129	759.893860	2.512797
290.277039	746.370850	1227.183716	763.460449	3.554314
290.648193	753.578186	1252.966797	764.203430	2.127650
291.019318	744.513367	1266.935669	762.197266	3.384982
291.390381	742.581482	1277.635254	768.067200	4.763207
291.761475	740.649597	1271.096558	765.615234	4.706529
292.132507	743.175781	1268.421753	769.107422	4.937047
292.503510	747.039551	1258.836670	759.225281	2.380969
292.874481	744.959045	1262.923340	766.358215	4.131399
293.245422	745.999329	1268.347412	769.776184	4.551918
293.616364	745.925049	1282.019043	772.153870	4.892579
293.987213	745.850769	1299.331665	764.575012	3.382997
294.358093	746.667969	1330.167236	768.587402	3.756549
294.728943	740.649475	1359.294067	768.364502	4.479959
295.099731	737.603027	1393.176147	767.770020	4.601621
295.470490	738.123230	1415.689819	762.940430	3.662695
295.841248	735.299744	1432.482056	773.714294	5.509972
296.211975	735.002502	1443.033203	776.240540	5.824329
296.582642	735.002502	1452.395142	773.491394	5.365108
296.953308	741.689758	1481.298950	762.197327	2.772757
297.323883	744.216064	1509.608398	758.779480	1.902739
297.694519	744.587585	1534.796997	762.940430	2.322529
298.065063	743.918762	1546.908325	772.079590	3.506998
298.435608	741.912659	1534.871216	773.937195	4.038614
298.806122	736.637207	1508.939575	771.113586	4.464104
299.176575	735.448242	1464.803711	766.804138	4.299124
299.547028	732.699036	1429.435669	768.141541	5.086930
299.917450	733.962219	1411.751587	771.336487	5.514142
300.287872	737.974609	1410.859985	767.175598	4.339668
300.658234	741.095398	1424.160156	768.290100	3.981277
301.028564	745.330566	1431.441772	767.472839	3.227213
301.398865	751.943542	1438.797852	759.596741	1.114239
301.769135	751.349121	1433.893921	750.011719	-0.195944
302.139374	753.503906	1430.104492	743.547363	-1.471554
302.509583	741.095276	1426.612183	746.370850	0.769576
302.879791	748.451355	1427.206665	755.138611	0.985223
303.249939	748.079773	1425.571899	752.092224	0.592251
303.620087	750.754639	1424.160278	754.841370	0.606875
303.990173	746.445129	1425.200562	750.457520	0.591139
304.360260	740.055115	1431.664917	757.813477	2.567685
304.730286	740.426575	1433.596680	763.088867	3.269370
305.100281	738.420410	1442.587280	761.454285	3.271082
305.470276	737.677429	1446.302368	759.373779	3.061754
305.840179	737.677429	1453.286987	758.705078	2.938425
306.210144	729.578430	1460.122681	765.169434	4.871848
306.579987	730.544373	1462.054688	772.451111	5.728796
306.949890	725.194580	1475.131836	766.135254	5.459213
307.319702	736.340027	1483.973999	764.203430	3.726878
307.689484	739.906555	1496.085327	759.968262	2.653038
308.059265	742.804382	1511.985962	769.033203	3.409965
308.429016	736.860107	1536.505981	767.992920	3.893325
308.798737	738.123230	1572.691406	770.890625	3.926269
309.168396	741.541199	1601.520874	772.896912	3.646099
309.538055	742.061279	1619.799316	772.822571	3.504610
309.907684	738.420471	1642.313110	767.472839	3.214139
310.277313	726.977844	1656.505005	756.921814	3.221420
310.646851	732.624817	1675.675171	762.048645	3.120070
311.016388	738.940613	1684.219849	771.633789	3.458573
311.385895	750.011719	1698.114380	780.327148	3.197484
311.755371	752.612305	1700.343384	775.571838	2.422579
312.124817	753.801086	1709.557007	769.256165	1.617053
312.494232	752.017822	1702.721069	771.485168	2.047678
312.863617	742.135559	1703.761353	780.030029	3.940667
313.232971	742.581360	1689.792603	776.240540	3.553503
313.602295	742.581360	1679.910278	768.736023	2.790340
313.971619	748.228455	1674.040161	759.968262	1.268056
314.340820	739.163513	1688.603516	765.986816	2.825171
314.710083	743.918884	1723.823120	769.924805	2.653925
315.079285	739.609375	1758.299683	774.085754	3.384383
315.448486	747.262512	1771.971313	774.382996	2.646653
315.817596	750.457520	1760.380249	771.633728	2.096815
316.186707	750.606140	1746.039673	766.878418	1.634693
316.555786	749.268738	1725.234985	758.333557	0.928805
316.924866	745.702148	1713.866577	755.732971	1.036066
317.293884	746.965332	1705.767578	750.308899	0.348723
317.662872	748.005554	1698.040039	755.584412	0.797746
318.031830	745.776367	1687.489136	763.683411	1.901540
318.400757	745.553528	1689.049438	774.605896	3.079226
318.769684	743.844543	1701.532227	778.320984	3.599967
319.138550	739.312073	1723.823120	767.101318	2.822644
319.507416	743.695984	1740.244141	764.500671	2.087675
319.876190	746.445129	1749.160278	760.191101	1.370875
320.244995	753.652527	1759.042603	758.556458	0.487764
320.613770	752.760925	1748.194336	752.538025	-0.022392
320.982483	744.290344	1732.070679	756.253113	1.211076
321.351166	733.293640	1711.043091	763.088867	3.047328
321.719818	729.801331	1700.046265	768.587219	3.997536
322.088440	735.819885	1712.529297	768.735901	3.370093
322.457062	740.203674	1727.761230	772.302490	3.250324
322.825623	738.791992	1749.234741	774.531555	3.537020
323.194183	737.157288	1777.841309	765.912415	2.763098
323.562653	736.117004	1808.528320	765.095154	2.702149
323.931183	740.723816	1846.794067	764.426453	2.142959
324.299591	740.500916	1883.648438	772.005188	2.755924
324.668060	739.683533	1928.824341	771.559509	2.680589
325.036407	741.912659	1974.074707	759.225281	1.405060
