Jaz Data File
++++++++++++++++++++++++++++++++++++
Date: Fri Jun 04 16:22:20 2021
User: jaz
Dark Spectrum Present: Yes
Reference Spectrum Present: Yes
Processed Spectrum Present: Yes
Spectrometers: JAZA3586
Integration Time (usec): 63200 (JAZA3586)
Spectra Averaged: 10 (JAZA3586)
Boxcar Smoothing: 1 (JAZA3586)
Correct for Electrical Dark: No (JAZA3586)
Strobe/Lamp Enabled: Yes (JAZA3586)
Correct for Detector Non-linearity: No (JAZA3586)
Correct for Stray Light: No (JAZA3586)
Number of Pixels in Processed Spectrum: 2048
>>>>>Begin Processed Spectral Data<<<<<
W	D	R	S	P
191.335022	0.000000	0.000000	0.000000	0.000000
191.713211	294.907501	299.365692	296.170685	28.333996
192.091385	595.536316	602.223572	591.078186	-66.666061
192.469528	903.743958	907.384827	893.564514	-279.588287
192.847641	913.849121	916.003967	901.589172	-568.947754
193.225739	927.520813	925.886230	913.997742	827.310425
193.603790	931.830383	930.715881	922.765564	813.351563
193.981842	939.557861	937.997559	931.013123	547.633362
194.359863	939.037659	936.957336	942.975891	-189.308762
194.737854	938.814758	947.062500	948.920105	122.522591
195.115829	942.381348	947.656921	951.743591	177.463989
195.493774	944.016113	948.325500	952.189392	189.662201
195.871704	935.768555	944.536194	950.257507	165.254898
196.249603	942.752930	949.217224	952.263672	147.127304
196.627457	936.808777	949.143005	944.387512	61.444744
197.005310	951.074890	950.554688	940.449524	2042.543701
197.383133	945.056335	939.780823	937.700378	139.435867
197.760910	951.966492	949.217285	935.396973	602.701843
198.138687	951.223450	946.988220	933.167969	426.316467
198.516449	948.325623	953.675476	931.236023	-319.440521
198.894180	941.266846	942.084167	937.477356	-463.647217
199.271866	937.031555	934.208069	936.437195	21.050583
199.649536	939.483643	929.898621	937.551758	20.155247
200.027191	942.009949	933.762390	928.709778	161.261917
200.404816	938.369080	947.211182	936.660156	-19.327116
200.782410	937.477356	960.734192	944.238953	29.073587
201.159988	935.322571	981.687561	955.755920	44.070644
201.537537	938.889160	989.563660	961.848694	45.307865
201.915070	927.446594	994.393372	955.458679	41.842319
202.292557	928.041016	987.185974	956.944763	48.869335
202.670029	927.446533	981.538879	955.607361	52.060650
203.047485	929.155579	980.721619	957.985046	55.907856
203.424911	916.152588	976.040527	958.133606	70.099289
203.802292	912.660339	973.662842	961.105774	79.415489
204.179688	913.997803	958.876648	961.031433	104.801338
204.557037	928.115295	957.762146	955.533020	92.481071
204.934357	929.824280	966.455505	948.771423	51.724022
205.311661	924.697327	972.251160	949.217285	51.562527
205.688934	922.022461	974.703125	953.081055	58.956345
206.066177	912.065857	969.278992	952.189453	70.130043
206.443390	918.381592	970.542175	943.718933	48.575649
206.820587	919.421875	966.826965	942.678650	49.059658
207.197769	927.892395	966.158386	944.387634	43.106789
207.574921	926.331970	966.158264	951.000488	61.940281
207.952042	925.217468	973.811462	948.102722	47.094818
208.329147	922.839783	976.709229	948.548523	47.724159
208.706223	937.105896	1005.835938	972.102539	50.918991
209.083267	942.827148	999.445862	972.919861	53.149765
209.460297	936.585754	997.142578	976.114929	65.276169
209.837280	921.873840	965.935364	951.372070	66.947823
210.214264	914.815125	960.288391	956.498840	91.666420
210.591217	918.827454	956.647644	948.697083	78.977997
210.968124	922.245422	967.272766	946.096619	52.970470
211.345016	928.783997	972.994141	945.502136	37.815166
211.721893	930.121521	971.210876	948.548584	44.846317
212.098724	931.013123	966.529785	948.548584	49.372494
212.475555	926.554932	967.347168	942.009949	37.887154
212.852356	926.703552	967.644348	940.672424	34.119690
213.229126	921.130859	962.666016	947.285400	62.969646
213.605865	909.985352	958.430847	950.183289	82.975594
213.982590	909.316650	962.145996	951.669250	80.168701
214.359283	912.065918	962.591797	948.697205	72.500046
214.735931	909.168152	960.065491	944.610535	69.635040
215.112579	910.282715	958.876648	947.879822	77.369957
215.489197	913.180420	964.820801	950.108887	71.510834
215.865799	922.616882	974.777405	952.263733	56.837719
216.242355	924.697449	976.635010	946.170898	41.344742
216.618896	918.976074	966.009766	944.238953	53.712303
216.995407	921.130859	958.653748	941.489746	54.257248
217.371902	916.598389	958.653748	940.078064	55.830402
217.748367	918.530273	962.368835	942.752930	55.254223
218.124802	920.387878	964.375000	943.793213	53.209515
218.501236	926.777832	959.099426	953.155334	81.609535
218.877609	919.942078	957.613464	953.972656	90.335350
219.253983	909.465332	955.384338	963.111816	116.828499
219.630295	911.768616	953.303894	953.452454	100.357674
220.006592	919.941895	948.622864	948.474182	99.481606
220.382889	929.229797	943.421631	941.564148	86.911606
220.759140	918.158691	952.040833	940.078125	64.693176
221.135391	910.728455	954.641418	941.638428	70.389175
221.511581	907.310547	964.820984	930.641602	40.568382
221.887772	911.917236	961.700195	932.870667	42.089565
222.263931	915.855286	968.238770	932.350586	31.489506
222.640060	917.118469	966.381165	942.529968	51.583656
223.016159	923.954346	965.563904	948.845764	59.821396
223.392212	923.880066	957.762024	950.108948	77.412529
223.768265	917.489990	959.768250	953.601135	85.413040
224.144302	911.099915	961.477234	947.954102	73.156311
224.520294	916.003906	972.696960	948.325500	57.011559
224.896286	922.765442	975.743347	944.907654	41.795181
225.272217	923.879944	975.817566	951.000488	52.217533
225.648148	925.143066	978.938293	955.904541	57.182533
226.024048	924.920227	982.802063	962.740417	65.340347
226.399902	923.136963	989.860840	963.706360	60.801918
226.775772	918.976074	982.504883	954.121277	55.321678
227.151581	920.462158	983.545105	945.947937	40.400425
227.527374	924.028625	981.241699	937.105896	22.857138
227.903137	918.753174	984.733948	943.570129	37.612404
228.278870	925.886230	977.526550	948.622803	44.028721
228.654572	925.886230	973.737122	953.081055	56.832432
229.030273	938.294739	966.306824	952.338074	50.133129
229.405930	929.749939	962.666016	952.709534	69.751915
229.781555	929.155579	957.910645	945.799316	57.881062
230.157181	924.697449	962.963318	943.273010	48.543419
230.532761	922.022461	962.740417	944.238953	54.561901
230.908325	915.706726	964.820801	949.514465	68.835136
231.283859	914.889343	968.387390	954.269775	73.610970
231.659332	920.239197	961.328613	952.337952	78.119278
232.034821	925.514648	959.471008	952.040771	78.118279
232.410263	920.090576	949.663086	946.393738	88.944641
232.785690	915.706726	956.573242	943.124451	67.090927
233.161087	908.425110	960.288391	949.663086	79.512856
233.536469	915.038025	960.734192	952.932434	82.926888
233.911804	914.666504	964.300781	955.904480	83.083664
234.287140	921.130859	960.882813	951.966492	77.570107
234.662430	928.338196	968.610352	950.183105	54.243210
235.037704	932.499207	972.399719	949.514465	42.644211
235.412933	928.486816	976.189148	952.635193	50.623055
235.788162	919.124573	974.554504	951.446289	58.310944
236.163345	916.747009	969.130371	949.588684	62.694859
236.538513	921.725281	970.542175	946.170715	50.075768
236.913635	917.415710	971.433777	946.765198	54.332726
237.288742	924.325928	970.764954	942.455750	39.040054
237.663834	930.047180	970.393494	938.740540	21.546850
238.038879	930.790222	971.730957	939.334961	20.870995
238.413910	920.536438	971.210754	944.684875	47.654194
238.788910	907.236267	969.799072	948.994385	66.745918
239.163879	911.397156	970.467773	952.709534	69.937271
239.538834	919.719055	966.083984	955.384460	76.923241
239.913757	926.629333	970.765076	955.607361	65.656601
240.288651	926.554993	976.709290	952.560974	51.851952
240.663528	922.394043	991.198303	952.040771	43.088509
241.038361	920.313538	985.476868	950.480469	46.294334
241.413177	922.914124	977.006409	954.715637	58.791218
241.787979	916.375488	972.548279	950.777649	61.243462
242.162735	918.976074	977.898132	951.149109	54.602699
242.537476	913.626282	983.396484	943.718811	43.130920
242.912170	923.360046	989.117859	944.164612	31.638165
243.286865	912.288879	996.771057	943.124451	36.499500
243.661514	915.855286	1001.154968	950.183289	40.243999
244.036148	912.363098	998.777161	955.755920	50.215000
244.410751	926.703552	992.164307	960.659851	51.872757
244.785339	928.709717	984.659668	959.396729	54.847252
245.159882	931.830383	984.362488	948.771484	32.249043
245.534378	928.635437	991.495422	947.062439	29.314360
245.908890	919.421875	990.306641	944.461914	35.324993
246.283356	913.774902	988.449036	954.269836	54.228863
246.657791	909.688171	989.786621	953.229675	54.359982
247.032196	915.929626	1002.640930	956.647644	46.958141
247.406586	918.827454	1004.275574	954.715637	41.999969
247.780960	924.920227	998.628601	953.229675	38.407372
248.155289	923.657043	996.845276	949.514465	35.330025
248.529602	926.109070	1001.674988	956.276062	39.921425
248.903870	921.502380	1001.377747	958.653625	46.511517
249.278122	929.601379	997.588379	958.133606	41.967178
249.652344	927.520935	1003.383972	955.384460	36.728725
250.026550	925.440430	1000.337463	950.480408	33.432537
250.400711	919.570496	1003.978333	951.372070	37.676094
250.774857	922.393982	998.257141	950.777649	37.414295
251.148987	920.907898	1003.681213	959.991211	47.217285
251.523071	916.895508	999.297302	957.687805	49.504139
251.897125	921.353760	997.662598	959.842590	50.438236
252.271164	919.273254	1001.229187	960.214050	49.954647
252.645187	919.273254	1001.972168	963.408997	53.369194
253.019165	916.524109	1004.795715	958.356445	47.390480
253.393112	929.601379	1009.848328	956.350342	33.333309
253.767044	925.143250	1011.111511	951.223450	30.337009
254.140930	918.381592	1011.260010	953.823975	38.159977
254.514801	912.140137	1000.783386	940.300964	31.768723
254.888657	915.409485	998.034180	940.003723	29.766209
255.262466	913.180420	994.839172	936.882996	29.026375
255.636276	914.963684	1000.263184	952.635071	44.163666
256.010010	921.650940	1007.247620	956.796082	41.059002
256.383759	929.304138	1010.739929	960.659851	38.503601
256.757446	927.149353	1008.808044	955.755859	35.031796
257.131134	920.685059	1006.207458	959.991150	45.959995
257.504791	912.363098	1009.551086	964.449280	53.593231
257.878418	907.979309	1010.888489	965.489563	55.884476
258.252014	908.276550	1013.712097	968.461670	57.082378
258.625580	914.517883	1020.622253	963.557678	46.218449
258.999115	915.112305	1032.139160	965.489563	43.047604
259.372650	917.118469	1051.606445	964.003479	34.861858
259.746124	912.214539	1058.219360	957.984924	31.348543
260.119598	911.545715	1068.696167	952.412292	26.004747
260.493042	912.957520	1069.810547	946.022217	21.080050
260.866425	915.929688	1073.674316	951.000488	22.232643
261.239838	918.010071	1076.274902	954.567078	23.098629
261.613159	918.455872	1070.925171	957.910645	25.877192
261.986511	923.136963	1064.089355	959.991150	26.146549
262.359802	927.000732	1051.755005	958.579346	25.312651
262.733063	926.257629	1049.600220	966.232605	32.409710
263.106293	920.684875	1044.547729	976.412109	44.991077
263.479523	920.759277	1039.643677	979.681396	49.562534
263.852692	922.393860	1038.454956	970.839355	41.741375
264.225861	923.582764	1040.981079	950.257507	22.721573
264.598969	923.137024	1043.284546	950.926270	23.129271
264.972076	915.855286	1044.324829	951.446350	27.703892
265.345154	913.403381	1043.953247	958.356445	34.433636
265.718201	910.728516	1044.027588	957.316223	34.949760
266.091217	914.592224	1046.033569	967.272766	40.079124
266.464203	918.604553	1044.993408	974.108643	43.915337
266.837158	923.731445	1050.046021	971.210876	37.588245
267.210114	922.691223	1049.228638	958.133606	28.009409
267.583038	920.982239	1058.368042	950.406067	21.416935
267.955902	920.685059	1067.581421	953.006653	22.002991
268.328766	925.366028	1071.073730	955.978821	21.009729
268.701569	922.914063	1073.971558	959.768250	24.397457
269.074371	915.632385	1073.377075	959.916809	28.073481
269.447144	911.917297	1083.779541	961.402893	28.793756
269.819885	918.010071	1097.228271	963.483398	25.373163
270.192596	922.393982	1098.119995	961.551575	22.283321
270.565277	918.827454	1105.252930	965.266602	24.910301
270.937927	914.443604	1103.098267	958.430847	23.316277
271.310577	917.861511	1107.407837	963.408997	24.029737
271.683136	927.223633	1109.413940	956.127441	15.864625
272.055725	924.325867	1120.707886	958.282227	17.290972
272.428284	927.520813	1138.986450	953.303894	12.192563
272.800812	915.483826	1149.388794	962.963318	20.298624
273.173279	923.137024	1144.336304	962.666016	17.870308
273.545776	913.477600	1138.837891	960.808533	21.002338
273.918152	922.616882	1124.794556	959.248108	18.118334
274.290558	918.753113	1122.565552	963.854980	22.129105
274.662964	920.907959	1127.692383	969.650574	23.571705
275.035278	916.375488	1125.834717	974.926086	27.953220
275.407593	914.443604	1134.602417	970.765137	25.582230
275.779907	916.747009	1131.036011	968.684631	24.237185
276.152161	913.329102	1150.503296	967.941589	23.026320
276.524384	914.963684	1155.927368	967.718689	21.893343
276.896606	906.418945	1154.515747	966.752686	24.318628
277.268799	911.991638	1154.812866	951.669250	16.340258
277.640930	904.412781	1153.921265	958.207947	21.560455
278.013031	917.118469	1164.546631	959.396729	17.087084
278.385162	920.685059	1157.785156	967.421387	19.711645
278.757233	932.201904	1160.162720	963.929199	13.917872
279.129272	932.944885	1162.986206	966.752686	14.696404
279.501282	928.561035	1173.611450	968.387390	16.252312
279.873230	917.415710	1175.171753	967.867371	19.573416
280.245178	914.740784	1183.196533	960.065430	16.883471
280.617126	917.935852	1190.849731	953.601074	13.068307
280.988983	922.765442	1201.252075	951.372070	10.272173
281.360870	919.050293	1207.270630	961.923035	14.874989
281.732697	915.706726	1211.357300	963.483398	16.159843
282.104492	921.799561	1225.920654	965.192322	14.268251
282.476288	918.307312	1232.310669	961.254211	13.677210
282.848053	919.347595	1243.678833	969.130371	15.349362
283.219757	918.455994	1244.644897	965.415100	14.396292
283.591461	920.982239	1249.028809	958.950867	11.574158
283.963135	921.353699	1251.332275	955.607239	10.380534
284.334747	916.969788	1251.109375	956.647522	11.874599
284.706360	917.341370	1263.220581	962.071594	12.932325
285.077942	918.976013	1273.920166	959.099548	11.304183
285.449524	924.920227	1276.297852	964.300781	11.207474
285.821014	926.257751	1281.721924	956.870544	8.612062
286.192535	922.839844	1295.467896	957.167664	9.212356
286.563995	925.514648	1322.514038	967.347168	10.537175
286.935425	930.195618	1333.362305	978.789734	12.053108
287.306824	934.133728	1326.452148	977.452332	11.041695
287.678223	929.229797	1323.108521	967.792969	9.790621
288.049561	920.462097	1325.114746	963.780579	10.705103
288.420898	919.867676	1326.898071	962.517517	10.478294
288.792145	918.455994	1329.052734	969.056091	12.323551
289.163452	920.239197	1319.170410	972.919739	13.205420
289.534668	917.564270	1326.154907	973.291321	13.638846
289.905914	913.031921	1327.120850	974.554504	14.857336
290.277039	916.969910	1343.021606	976.189148	13.899543
290.648193	913.329102	1352.309448	981.910400	15.622863
291.019318	923.657166	1375.269043	973.588562	11.056263
291.390381	922.245422	1384.185547	974.554504	11.323780
291.761475	931.533203	1389.981079	976.635010	9.837935
292.132507	927.446533	1380.544556	980.870300	11.790774
292.503510	930.270020	1378.018188	975.669128	10.139429
292.874481	929.824219	1379.355835	980.944519	11.371903
293.245422	926.852051	1376.012085	973.885742	10.471478
293.616364	924.623047	1384.928345	975.594727	11.073451
293.987213	916.895569	1402.166626	960.362732	8.957295
294.358093	921.799622	1429.287109	968.387390	9.180082
294.728943	916.003906	1442.290039	970.616516	10.376981
295.099731	922.914063	1456.704712	974.554504	9.674288
295.470490	916.746887	1479.441406	974.405945	10.246956
295.841248	919.050293	1507.379272	975.668945	9.623638
296.211975	916.301208	1521.571289	979.384216	10.422291
296.582642	916.821228	1531.824829	979.235535	10.148608
296.953308	918.158691	1545.645142	972.919861	8.727068
297.323883	917.489929	1557.533569	978.195313	9.484570
297.694519	917.787170	1564.889648	966.975586	7.601333
298.065063	917.489990	1567.787476	973.068359	8.546607
298.435608	920.090576	1563.700806	967.718567	7.400129
298.806122	924.771667	1552.406738	975.223206	8.038356
299.176575	931.236023	1521.571289	966.529785	5.978596
299.547028	928.263916	1508.568237	958.802246	5.262468
299.917450	925.737610	1490.066772	959.619629	6.003946
300.287872	920.164856	1496.308228	961.774414	7.222084
300.658234	922.839783	1491.255737	961.700012	6.836583
301.028564	920.016357	1489.620972	959.471008	6.926673
301.398865	924.400208	1488.877930	958.579407	6.055013
301.769135	924.846008	1482.859375	968.907471	7.896130
302.139374	924.771667	1492.072876	974.257263	8.722984
302.509583	922.022461	1484.345581	975.743347	9.553384
302.879791	921.056458	1492.964478	976.189148	9.640132
303.249939	924.251526	1488.506348	973.811523	8.783265
303.620087	920.833679	1493.558960	972.994141	9.107414
303.990173	915.112366	1483.750977	968.461670	9.381935
304.360260	913.923523	1484.568359	966.975586	9.296862
304.730286	919.941956	1484.939819	970.021973	8.863753
305.100281	922.393860	1490.735352	974.628723	9.190753
305.470276	925.737610	1493.038940	977.229492	9.076637
305.840179	920.907898	1499.726074	972.399719	8.896027
306.210144	926.926453	1514.586548	968.907532	7.143769
306.579987	921.725281	1520.456543	970.021973	8.066505
306.949890	920.907959	1529.967407	974.703125	8.832499
307.319702	919.273254	1530.338867	980.275696	9.982961
307.689484	922.319641	1532.122070	976.263428	8.846108
308.059265	921.502258	1535.911499	976.114807	8.888627
308.429016	918.233093	1553.818481	969.130432	8.007947
308.798737	920.239197	1580.716187	974.851746	8.268653
309.168396	920.313538	1611.774780	979.235535	8.521374
309.538055	922.245361	1639.638062	981.910400	8.316929
309.907684	919.124695	1655.241699	978.418213	8.054904
310.277313	927.520813	1662.894897	980.127197	7.153690
310.646851	929.824219	1666.312866	982.504883	7.152950
311.016388	931.533203	1681.321899	985.328308	7.174702
311.385895	923.211243	1682.510742	981.836121	7.720916
311.755371	919.867676	1677.161133	987.631653	8.948179
312.124817	921.799561	1680.058960	977.600891	7.359135
312.494232	923.954346	1688.677856	980.350098	7.374659
312.863617	921.725281	1686.151489	972.176819	6.599923
313.232971	919.124695	1677.161011	978.121033	7.782785
313.602295	919.198914	1671.216797	973.365662	7.202854
313.971619	922.245361	1685.334351	974.703064	6.874389
314.340820	923.731445	1685.854492	973.365540	6.512609
314.710083	918.753113	1694.919312	982.430481	8.204089
315.079285	915.929688	1698.411621	981.315979	8.356269
315.448486	915.038025	1711.563110	987.111572	9.048497
315.817596	924.028625	1707.253784	978.789734	6.991745
316.186707	925.811829	1702.944214	987.928955	7.993120
316.555786	922.468262	1688.232056	988.523376	8.626043
316.924866	912.511719	1680.207397	992.461426	10.414245
317.293884	906.121643	1662.300415	987.706055	10.789038
317.662872	904.932861	1663.340820	989.043457	11.090416
318.031830	907.682068	1669.953613	990.232239	10.829496
318.400757	908.796570	1679.835938	987.557434	10.214895
318.769684	914.517883	1680.875977	992.461426	10.170643
319.138550	925.589050	1686.746094	1000.040283	9.781323
319.507416	924.697327	1695.885254	1013.489075	11.513633
319.876190	921.725281	1703.390015	1008.362244	11.083648
320.244995	915.483826	1710.077148	1009.996887	11.894520
320.613770	922.022461	1708.591187	1008.213623	10.957868
320.982483	926.109131	1700.714844	1023.594238	12.585126
321.351166	923.434265	1684.516968	1024.634399	13.296865
321.719818	926.629211	1675.526367	1025.674683	13.225511
322.088440	928.338196	1688.826538	1015.569519	11.470435
322.457062	926.852112	1705.693237	1012.002991	10.933022
322.825623	921.725281	1726.795288	1019.879089	12.191959
323.194183	908.870911	1749.457520	1032.733521	14.735258
323.562653	911.545837	1773.680298	1052.572388	16.357838
323.931183	913.106140	1797.234375	1062.751831	16.925791
