Jaz Data File
++++++++++++++++++++++++++++++++++++
Date: Fri Jun 04 16:39:02 2021
User: jaz
Dark Spectrum Present: Yes
Reference Spectrum Present: Yes
Processed Spectrum Present: Yes
Spectrometers: JAZA3586
Integration Time (usec): 24500 (JAZA3586)
Spectra Averaged: 10 (JAZA3586)
Boxcar Smoothing: 1 (JAZA3586)
Correct for Electrical Dark: No (JAZA3586)
Strobe/Lamp Enabled: Yes (JAZA3586)
Correct for Detector Non-linearity: No (JAZA3586)
Correct for Stray Light: No (JAZA3586)
Number of Pixels in Processed Spectrum: 2048
>>>>>Begin Processed Spectral Data<<<<<
W	D	R	S	P
191.335022	0.000000	0.000000	0.000000	0.000000
191.713211	234.722305	237.694412	239.254761	152.499741
192.091385	468.330078	472.342407	479.772705	285.186646
192.469528	711.002747	710.185364	714.420715	-418.160095
192.847641	720.513489	715.535156	721.479492	-19.404156
193.225739	732.476257	730.321472	722.296692	472.416718
193.603790	736.860046	741.615417	734.853943	-42.186054
193.981842	742.209778	745.999268	738.123230	-107.838997
194.359863	749.714417	747.931152	745.256348	249.994873
194.737854	753.281006	751.571960	761.751465	-495.625153
195.115829	747.039551	756.253113	761.825867	160.484253
195.493774	744.364685	757.144714	764.575012	158.139908
195.871704	749.268555	759.448059	750.531799	12.409687
196.249603	759.002258	755.435791	750.383240	241.668228
196.627457	760.636963	752.909485	750.606140	129.807205
197.005310	755.881531	750.606140	753.355286	47.887356
197.383133	752.166443	758.853760	757.144714	74.443481
197.760910	752.389343	761.008484	762.123047	112.931252
198.138687	755.287109	762.420227	766.581116	158.331985
198.516449	752.240723	760.859863	764.723633	144.827774
198.894180	751.274841	756.847473	768.141602	302.671356
199.271866	746.296570	753.726746	761.379944	203.001572
199.649536	747.931152	745.553467	764.203552	-684.379822
200.027191	745.330566	743.918762	753.949707	-610.505371
200.404816	742.061218	748.822815	752.909363	160.437622
200.782410	740.872375	757.516296	756.921692	96.427498
201.159988	741.615479	771.856628	764.872253	76.904404
201.537537	743.101563	774.977356	763.534729	64.102455
201.915070	746.668030	783.076355	756.327393	26.530643
202.292557	738.271790	776.314758	748.451355	26.758074
202.670029	741.838379	782.556213	755.064270	32.481815
203.047485	737.751770	773.491272	755.807312	50.519848
203.424911	742.655762	778.766846	760.414063	49.176868
203.802292	737.677429	770.742126	758.110657	61.797714
204.179688	736.042786	779.286926	755.732971	45.532608
204.557037	742.358459	782.481934	760.116882	44.259434
204.934357	742.358459	784.562439	765.169434	54.049343
205.311661	743.324463	778.692566	768.215820	70.377983
205.688934	732.030457	775.125977	761.008484	67.241394
206.066177	735.225403	778.692566	756.921875	49.914627
206.443390	736.340027	784.785339	754.989929	38.496815
206.820587	742.284180	788.723389	748.897156	14.240070
207.197769	739.312195	785.676941	752.686523	28.845901
207.574921	737.305908	784.488098	757.664856	43.149647
207.952042	735.225403	780.773010	757.590576	49.102852
208.329147	738.271790	777.726563	757.590576	48.964386
208.706223	746.816589	772.748291	757.887695	42.693325
209.083267	751.720642	772.971191	766.209656	68.181831
209.460297	741.764099	775.125977	760.116882	55.011242
209.837280	732.476257	776.983459	756.847473	54.757915
210.214264	727.052063	778.915344	755.732971	55.300991
210.591217	727.275085	770.890686	757.962097	70.357880
210.968124	726.309082	769.999023	755.064270	65.816498
211.345016	731.064453	772.525391	755.361511	58.602287
211.721893	742.878601	779.509827	748.079834	14.198905
212.098724	746.965271	777.800842	745.627869	-4.337206
212.475555	745.181946	776.983582	751.051941	18.458155
212.852356	737.528809	783.670715	761.751465	52.496002
213.229126	732.476257	784.933899	764.649231	61.331337
213.605865	729.504089	784.413818	755.955872	48.173214
213.982590	729.355469	781.144531	754.989929	49.497826
214.359283	726.531921	778.320984	756.847473	58.536591
214.735931	722.593933	775.794678	761.379944	72.905014
215.112579	726.383484	769.924805	755.732971	67.406059
215.489197	734.482422	771.708069	752.389343	48.103722
215.865799	739.163513	761.231262	752.537903	60.606045
216.242355	740.872375	756.921692	749.491516	53.704098
216.618896	738.197571	758.927979	754.321106	77.777222
216.995407	736.860046	766.655457	746.965149	33.914963
217.371902	734.036560	771.410828	747.188171	35.188946
217.748367	731.138855	767.472839	743.695984	34.560287
218.124802	726.754883	769.404602	748.748535	51.568108
218.501236	720.810730	764.203430	754.841492	78.425087
218.877609	726.680603	767.175598	751.869324	62.202061
219.253983	730.990234	767.621399	748.599915	48.072948
219.630295	736.414307	768.513000	740.278015	12.036964
220.006592	731.361633	767.398499	740.203674	24.536098
220.382889	731.956055	768.884521	742.284180	27.967922
220.759140	731.733154	773.416992	750.977600	46.167645
221.135391	734.853943	773.714172	755.955872	54.302120
221.511581	736.414307	767.844299	760.191101	75.650017
221.887772	730.247131	762.197266	762.940369	102.325821
222.263931	726.680664	763.014648	763.386169	101.022514
222.640060	721.627991	770.073425	759.522461	78.220932
223.016159	727.572266	773.194153	754.469910	58.957764
223.392212	730.692932	771.336609	754.767029	59.232082
223.768265	734.631042	769.701843	753.652527	54.237381
224.144302	739.014832	768.736023	756.327332	58.249683
224.520294	741.615417	766.358215	755.584412	56.456810
224.896286	742.284180	761.380066	766.358337	126.069862
225.272217	745.553528	764.500671	764.054932	97.647453
225.648148	747.782715	772.302490	765.763855	73.333214
226.024048	749.045715	777.726563	752.017822	10.362689
226.399902	737.008728	783.819397	747.039551	21.428497
226.775772	730.618652	778.395325	751.126282	42.923939
227.151581	730.395752	777.206482	751.943542	46.031734
227.527374	737.974609	774.160095	755.584412	48.665375
227.903137	734.556702	774.308594	751.646301	42.990658
228.278870	734.631042	769.850403	756.178772	61.181492
228.654572	725.120300	775.348877	760.265442	69.970413
229.030273	726.754883	784.562500	756.030212	50.642685
229.405930	725.343201	791.175354	751.349121	39.503372
229.781555	723.708496	789.169189	748.154114	37.343964
230.157181	725.194580	786.494324	753.355286	45.939354
230.532761	719.250305	783.968018	761.082825	64.638443
230.908325	726.606262	784.413818	763.906250	64.524414
231.283859	726.903503	780.104248	759.076599	60.474895
231.659332	735.745544	779.807068	758.036377	50.590244
232.034821	736.340027	779.509949	755.807312	45.094559
232.410263	733.739319	776.686340	760.562683	62.456867
232.785690	726.829163	774.828796	755.212891	59.133217
233.161087	726.086182	766.729797	748.451355	55.027519
233.536469	732.996338	774.977356	743.547363	25.132849
233.911804	735.745544	775.200256	742.358459	16.760775
234.287140	735.671204	777.726563	744.438965	20.848143
234.662430	741.764099	776.166260	749.342957	22.030178
235.037704	744.884766	777.355164	750.085938	16.018196
235.412933	741.689758	781.218811	752.166504	26.503912
235.788162	731.658936	779.212646	751.200500	41.093670
236.163345	727.275085	773.937195	756.698914	63.057217
236.538513	732.253357	771.708069	757.887756	64.971703
236.913635	726.234802	775.348938	752.463684	53.403938
237.288742	724.748718	783.447937	751.051941	44.810177
237.663834	727.052185	782.333313	754.915710	50.403324
238.038879	726.754883	773.639893	755.881592	62.123714
238.413910	728.538147	772.822571	750.754639	50.167732
238.788910	724.228516	773.937195	744.141785	40.059944
239.163879	733.962219	775.720398	746.222168	29.359396
239.538834	739.757996	768.290222	749.120117	32.812447
239.913757	741.689758	763.906311	749.194336	33.779217
240.288651	742.209900	771.485168	751.869202	32.994751
240.663528	741.615417	779.881348	755.732910	36.893112
241.038361	743.324402	791.918396	756.253113	26.605574
241.413177	738.569031	783.670715	758.556458	44.316364
241.787979	733.962219	784.785339	751.051941	33.625881
242.162735	732.401917	779.435547	754.618469	47.235462
242.537476	730.395813	794.370422	746.073669	24.506372
242.912170	735.522644	798.382751	748.228333	20.212643
243.286865	725.863281	805.664368	745.850769	25.046637
243.661514	721.256531	802.097839	744.810364	29.135887
244.036148	714.346375	802.543701	746.073547	35.972942
244.410751	722.148193	802.915222	746.296570	29.898806
244.785339	732.922058	803.286804	752.686523	28.088591
245.159882	738.940613	799.051453	753.949707	24.969030
245.534378	739.014893	794.816162	755.361511	29.294350
245.908890	738.271790	791.175293	750.754700	23.595621
246.283356	728.909668	791.621155	746.296570	27.725227
246.657791	726.086182	802.915222	750.531799	31.818199
247.032196	719.696106	809.379456	759.225159	44.076244
247.406586	720.141907	821.565186	765.540955	44.761959
247.780960	720.290588	824.165833	765.541016	43.562283
248.155289	720.662109	822.977051	751.794922	30.428413
248.529602	725.863281	819.856262	750.308899	26.007917
248.903870	730.024231	817.998718	744.216064	16.131760
249.278122	731.733215	818.593079	749.788818	20.787050
249.652344	732.996399	816.141113	745.404968	14.924063
250.026550	735.671204	813.391846	750.383240	18.929380
250.400711	734.631042	809.453857	749.417297	19.761692
250.774857	731.956116	810.642639	751.200500	24.457027
251.148987	725.640381	808.785156	748.079773	26.988337
251.523071	727.572266	813.317627	742.358459	17.244308
251.897125	734.556702	819.336121	742.581482	9.465482
252.271164	731.956055	817.255676	748.674255	19.599384
252.645187	731.138733	816.438293	754.618469	27.526211
253.019165	726.160461	814.283508	759.299500	37.605415
253.393112	731.287415	820.376282	752.909485	24.270227
253.767044	731.881836	827.509460	759.373779	28.748955
254.140930	734.779602	828.178162	758.853699	25.775661
254.514801	736.488586	824.314392	752.315125	18.020374
254.888657	736.934387	819.410400	751.274841	17.387424
255.262466	728.686829	816.141113	752.835205	27.612572
255.636276	725.640381	817.998596	763.014648	40.466640
256.010010	728.538269	823.274170	769.924805	43.686222
256.383759	731.658936	823.571350	767.621399	39.126884
256.757446	734.259521	830.704407	766.952637	33.898235
257.131134	727.720886	831.596008	759.150879	30.257479
257.504791	730.395752	839.472168	763.237549	30.108980
257.878418	726.680664	837.391602	763.311829	33.087215
258.252014	729.875671	847.793945	758.927979	24.637663
258.625580	730.024231	853.441101	752.389343	18.121601
258.999115	732.476257	867.112732	751.423401	14.072816
259.372650	729.206848	873.874329	746.519348	11.967098
259.746124	730.618652	899.434387	747.782532	10.167227
260.119598	733.293518	920.313477	749.640137	8.740575
260.493042	744.141785	938.963562	754.692688	5.415669
260.866425	742.209900	934.208191	754.098328	6.191945
261.239838	745.033386	931.236023	755.955872	5.865913
261.613159	737.751709	921.056580	757.218994	10.620168
261.986511	734.482422	913.031799	756.327393	12.234694
262.359802	727.200745	894.530457	757.590576	18.161648
262.733063	726.234863	885.316895	759.299500	20.784645
263.106293	726.309082	884.202332	762.197266	22.729397
263.479523	727.349365	886.877258	755.584412	17.699129
263.852692	730.618652	888.214661	756.550293	16.454504
264.225861	737.751709	881.378906	758.630798	14.537003
264.598969	737.677429	885.688477	760.488464	15.411711
264.972076	739.460693	890.963928	763.906311	16.135376
265.345154	734.259521	902.109375	762.717468	16.954407
265.718201	740.649475	903.966980	757.516296	10.327626
266.091217	739.460693	907.310547	758.482178	11.332440
266.464203	740.500977	910.356934	756.327393	9.317552
266.837158	735.894104	922.393982	762.643066	14.342617
267.210114	729.281250	927.818054	752.240723	11.564341
267.583038	724.377258	939.706543	755.807312	14.596274
267.955902	720.736328	941.118164	756.698914	16.318308
268.328766	718.507324	947.285339	765.763855	20.656063
268.701569	718.358704	949.737366	768.067200	21.483612
269.074371	719.696106	959.396790	768.215820	20.241793
269.447144	723.782776	972.102539	768.884583	18.162794
269.819885	730.915833	981.984863	762.271667	12.488930
270.192596	730.544373	980.572998	756.030090	10.193120
270.565277	736.414246	988.671936	757.887695	8.512506
270.937927	731.213074	1000.114563	754.172607	8.538269
271.310577	733.813660	1036.225708	752.537903	6.191633
271.683136	730.618652	1056.881836	749.937317	5.921190
272.055725	733.813660	1076.869263	758.333496	7.147482
272.428284	732.253235	1078.652588	762.271667	8.665846
272.800812	730.841553	1081.476074	762.568848	9.048537
273.173279	730.841553	1078.801147	759.819641	8.328004
273.545776	729.727051	1080.435913	758.259277	8.135588
273.918152	729.281189	1073.674316	754.023926	7.184445
274.290558	734.185120	1064.609375	758.259216	7.285814
274.662964	736.934387	1053.835449	755.287109	5.791310
275.035278	744.587585	1049.451660	754.469910	3.241551
275.407593	741.912659	1057.996460	751.200500	2.938411
275.779907	741.912659	1066.689819	766.432556	7.549760
276.152161	737.231628	1078.206665	770.221985	9.675300
276.524384	731.064453	1083.556519	770.519226	11.193095
276.896606	723.857117	1100.126099	758.184875	9.123197
277.268799	726.754883	1112.534546	753.652405	6.972250
277.640930	732.401855	1129.401245	752.240662	4.997188
278.013031	739.089172	1128.658325	754.767029	4.024409
278.385162	734.779602	1133.413696	761.305664	6.654238
278.757233	733.590820	1134.082397	761.900146	7.068645
279.129272	725.789001	1130.292969	768.438782	10.543724
279.501282	725.120300	1138.614868	765.838196	9.847262
279.873230	722.965515	1154.515747	764.054932	9.521352
280.245178	731.287354	1174.948975	757.516296	5.911925
280.617126	725.417480	1190.701172	758.110657	7.026504
280.988983	727.052063	1203.555542	763.683411	7.687530
281.360870	727.126465	1232.459351	765.243713	7.542998
281.732697	730.470032	1257.424927	763.237549	6.218277
282.104492	727.349426	1283.579590	762.494446	6.318431
282.476288	723.931458	1308.099487	765.020813	7.033825
282.848053	735.522644	1320.805054	764.203430	4.900333
283.219757	740.575195	1323.554321	766.952698	4.524605
283.591461	739.460632	1315.158203	758.259277	3.265368
283.963135	732.179016	1321.771118	761.454346	4.965353
284.334747	728.389587	1330.910278	756.847595	4.723158
284.706360	730.172852	1347.628418	761.825867	5.126363
285.077942	727.275085	1367.095703	759.819641	5.086513
285.449524	728.315247	1379.430054	760.042542	4.872765
285.821014	727.943787	1393.770508	762.048767	5.122200
286.192535	731.807434	1411.157227	765.615234	4.976494
286.563995	736.785828	1446.228149	762.197266	3.581889
286.935425	734.185242	1468.518921	760.265381	3.551538
287.306824	731.064453	1487.763306	758.333557	3.603693
287.678223	727.423645	1474.166016	762.717468	4.726372
288.049561	732.476257	1462.351929	764.129211	4.336760
288.420898	727.869446	1436.048828	763.757629	5.067668
288.792145	728.761047	1424.977661	758.110657	4.215586
289.163452	727.200867	1432.333618	762.197327	4.963102
289.534668	726.160461	1451.280884	763.534729	5.154215
289.905914	724.525879	1481.150391	767.324219	5.656483
290.277039	730.692932	1508.493774	762.940247	4.145960
290.648193	736.860046	1546.759766	767.101257	3.733945
291.019318	737.900330	1590.747070	770.147705	3.781145
291.390381	725.566101	1606.796387	768.587402	4.881959
291.761475	721.776672	1592.010132	760.637024	4.465509
292.132507	717.244141	1570.908203	749.120056	3.734012
292.503510	720.885010	1553.892944	749.640137	3.451963
292.874481	723.634216	1554.858765	752.389343	3.459369
293.245422	722.668274	1553.149902	764.203430	5.001334
293.616364	719.176025	1580.493164	769.181824	5.805736
293.987213	721.107910	1610.511353	771.336609	5.647460
294.358093	726.383362	1655.093140	769.033142	4.592369
294.728943	737.900391	1706.064819	764.352051	2.732145
295.099731	736.785828	1745.519653	757.441956	2.047728
295.470490	737.305969	1773.977539	755.807312	1.784687
295.841248	737.900391	1790.175415	761.454285	2.238378
296.211975	741.318298	1813.952148	766.581238	2.355225
296.582642	743.695984	1860.911621	766.804016	2.068359
296.953308	733.813721	1909.134155	765.615234	2.705774
297.323883	729.058289	1959.362793	765.020813	2.923059
297.694519	724.748718	1980.687500	764.500671	3.165119
298.065063	736.340027	1975.040527	761.602844	2.039461
298.435608	737.974609	1957.133667	767.918640	2.456122
298.806122	743.250183	1912.180542	768.513000	2.161191
299.176575	743.621643	1859.128418	768.438721	2.224735
299.547028	744.290344	1809.345703	759.522461	1.430171
299.917450	743.027161	1784.825562	763.609070	1.975614
300.287872	731.361755	1781.184937	761.380066	2.859368
300.658234	728.166687	1773.457397	764.426453	3.468869
301.028564	727.795166	1778.212524	757.664856	2.843602
301.398865	728.983948	1789.581055	760.116882	2.935416
301.769135	733.293518	1800.280640	757.887756	2.305017
302.139374	730.098450	1802.658325	759.968262	2.784909
302.509583	732.550476	1801.395142	756.401672	2.231493
302.879791	733.888000	1799.463257	756.476013	2.119795
303.249939	735.596985	1789.952515	753.429688	1.691337
303.620087	744.364685	1769.593750	756.921875	1.224818
303.990173	746.073547	1766.547241	762.345886	1.594587
304.360260	743.027161	1755.179077	767.175537	2.385845
304.730286	734.036621	1775.537720	768.141541	3.274593
305.100281	730.395752	1785.271484	764.872253	3.268300
305.470276	733.442139	1799.983398	773.491272	3.755048
305.840179	732.476257	1797.977173	771.410828	3.654109
306.210144	735.819824	1801.098022	776.240479	3.794375
306.579987	736.191406	1817.221680	765.838196	2.742457
306.949890	738.049011	1827.995605	768.141602	2.760924
307.319702	735.448303	1842.410156	764.277832	2.604383
307.689484	729.578430	1860.391479	765.540955	3.180236
308.059265	734.853943	1888.254883	761.379944	2.299808
308.429016	730.321472	1928.526978	763.237610	2.747119
308.798737	739.609314	1979.721802	761.602844	1.773511
309.168396	730.693054	2026.681030	766.061096	2.729041
309.538055	731.287415	2058.854248	765.169434	2.552189
309.907684	720.439209	2069.330811	766.581238	3.420737
310.277313	724.525879	2089.912598	762.494568	2.780801
310.646851	725.417480	2111.906250	760.042480	2.497316
311.016388	733.367859	2136.203125	760.934082	1.965037
311.385895	734.779541	2137.466064	763.534729	2.050008
311.755371	737.677429	2142.444580	765.095032	1.951754
312.124817	729.801270	2142.816162	761.974304	2.276907
312.494232	724.748779	2144.450928	766.283936	2.925625
312.863617	729.875671	2126.246826	760.191101	2.171015
313.232971	739.014893	2119.187744	768.215820	2.115744
313.602295	740.946777	2107.002197	768.884521	2.045140
313.971619	735.225403	2114.209717	779.212646	3.189829
314.340820	729.429871	2124.909180	773.194092	3.136143
314.710083	725.937561	2148.463135	771.930969	3.233222
315.079285	727.943665	2180.487549	772.228210	3.048758
315.448486	732.179016	2205.379150	779.658447	3.222877
315.817596	727.275085	2204.561523	775.794678	3.284373
316.186707	723.931396	2166.221436	768.810242	3.111638
316.555786	722.148132	2112.797607	762.791748	2.922636
316.924866	739.386414	2075.200439	753.801086	1.079093
317.293884	740.278015	2064.352295	753.429504	0.993259
317.662872	742.284180	2065.912842	753.132324	0.819576
318.031830	732.179016	2081.070801	763.163269	2.297015
318.400757	737.603088	2088.426758	761.454285	1.765678
318.769684	736.117004	2105.293213	759.819641	1.731160
319.138550	740.649475	2125.354736	761.825745	1.529298
319.507416	739.609192	2139.695313	763.311829	1.692941
319.876190	738.940613	2156.636475	763.534851	1.734804
320.244995	739.757874	2152.401367	763.683350	1.693667
320.613770	739.460693	2139.398193	772.525391	2.361870
320.982483	739.460693	2119.262451	780.178528	2.950992
321.351166	739.014832	2095.485352	776.760681	2.782652
321.719818	733.144958	2091.993164	777.652344	3.275376
322.088440	731.361633	2093.850586	775.125977	3.212088
322.457062	727.423645	2121.491455	777.355042	3.581705
322.825623	733.144958	2147.720215	775.497375	2.994003
323.194183	732.179016	2188.958008	778.246643	3.162293
323.562653	735.819885	2233.614258	776.983582	2.748287
323.931183	721.479492	2286.517578	779.955627	3.736403
324.299591	722.519714	2340.238525	775.497498	3.274845
324.668060	713.231750	2393.662109	781.664612	4.072341
325.036407	722.445313	2434.528564	771.782410	2.881700
