Jaz Data File
++++++++++++++++++++++++++++++++++++
Date: Fri Jun 04 16:21:40 2021
User: jaz
Dark Spectrum Present: Yes
Reference Spectrum Present: Yes
Processed Spectrum Present: Yes
Spectrometers: JAZA3586
Integration Time (usec): 63200 (JAZA3586)
Spectra Averaged: 10 (JAZA3586)
Boxcar Smoothing: 1 (JAZA3586)
Correct for Electrical Dark: No (JAZA3586)
Strobe/Lamp Enabled: Yes (JAZA3586)
Correct for Detector Non-linearity: No (JAZA3586)
Correct for Stray Light: No (JAZA3586)
Number of Pixels in Processed Spectrum: 2048
>>>>>Begin Processed Spectral Data<<<<<
W	D	R	S	P
191.335022	0.000000	0.000000	0.000000	0.000000
191.713211	294.907501	299.365692	297.136597	50.000000
192.091385	595.536316	602.223572	600.663269	76.667519
192.469528	903.743958	907.384827	902.629456	-30.610876
192.847641	913.849121	916.003967	911.471497	-110.338478
193.225739	927.520813	925.886230	919.719055	477.293610
193.603790	931.830383	930.715881	929.750000	186.664841
193.981842	939.557861	937.997559	936.585754	190.482712
194.359863	939.037659	936.957336	939.780823	-35.723507
194.737854	938.814758	947.062500	944.461914	68.469116
195.115829	942.381348	947.656921	942.827209	8.451438
195.493774	944.016113	948.325500	939.334961	-108.626869
195.871704	935.768555	944.536194	936.362976	6.779720
196.249603	942.752930	949.217224	942.307129	-6.896357
196.627457	936.808777	949.143005	943.273132	52.409889
197.005310	951.074890	950.554688	942.901550	1571.183838
197.383133	945.056335	939.780823	946.468079	-26.760303
197.760910	951.966492	949.217285	956.573242	-167.566544
198.138687	951.223450	946.988220	951.372070	-3.509151
198.516449	948.325623	953.675476	944.238953	-76.388443
198.894180	941.266846	942.084167	933.093567	-1000.007446
199.271866	937.031555	934.208069	937.551758	-18.424124
199.649536	939.483643	929.898621	937.180176	24.031940
200.027191	942.009949	933.762390	938.666260	40.541561
200.404816	938.369080	947.211182	936.882996	-16.806908
200.782410	937.477356	960.734192	945.502136	34.505039
201.159988	935.322571	981.687561	957.093323	46.955154
201.537537	938.889160	989.563660	967.644348	56.744888
201.915070	927.446594	994.393372	963.929199	54.494938
202.292557	928.041016	987.185974	958.505066	51.507435
202.670029	927.446533	981.538879	964.003479	67.582474
203.047485	929.155579	980.721619	961.923035	63.544643
203.424911	916.152588	976.040527	967.347107	85.483856
203.802292	912.660339	973.662842	958.505066	75.152206
204.179688	913.997803	958.876648	966.009583	115.893761
204.557037	928.115295	957.762146	961.700134	113.282990
204.934357	929.824280	966.455505	964.597961	94.929070
205.311661	924.697327	972.251160	962.591797	79.687523
205.688934	922.022461	974.703125	965.563904	82.651657
206.066177	912.065857	969.278992	966.158264	94.545433
206.443390	918.381592	970.542175	966.306824	91.880165
206.820587	919.421875	966.826965	960.957031	87.617500
207.197769	927.892395	966.158386	956.944763	75.922165
207.574921	926.331970	966.158264	955.087158	72.201515
207.952042	925.217468	973.811462	960.065430	71.712486
208.329147	922.839783	976.709229	960.882813	70.620796
208.706223	937.105896	1005.835938	979.978577	62.378372
209.083267	942.827148	999.445862	976.040527	58.661488
209.460297	936.585754	997.142578	971.656738	57.914173
209.837280	921.873840	965.935364	953.824036	72.512688
210.214264	914.815125	960.288391	954.492737	87.254807
210.591217	918.827454	956.647644	956.498962	99.606873
210.968124	922.245422	967.272766	947.285400	55.610603
211.345016	928.783997	972.994141	947.805481	43.025158
211.721893	930.121521	971.210876	949.588867	47.378075
212.098724	931.013123	966.529785	953.601135	63.598354
212.475555	926.554932	967.347168	951.372070	60.837898
212.852356	926.703552	967.644348	952.263672	62.431908
213.229126	921.130859	962.666016	960.882813	95.706764
213.605865	909.985352	958.430847	963.780579	111.042786
213.982590	909.316650	962.145996	960.139709	96.202324
214.359283	912.065918	962.591797	953.155273	81.323387
214.735931	909.168152	960.065491	951.817688	83.795219
215.112579	910.282715	958.876648	953.601074	89.143555
215.489197	913.180420	964.820801	955.830139	82.589859
215.865799	922.616882	974.777405	957.910706	67.663864
216.242355	924.697449	976.635010	958.579407	65.235947
216.618896	918.976074	966.009766	960.808533	88.941475
216.995407	921.130859	958.653748	958.653625	99.999672
217.371902	916.598389	958.653748	952.263611	84.805420
217.748367	918.530273	962.368835	944.016113	58.135666
218.124802	920.387878	964.375000	942.009949	49.155457
218.501236	926.777832	959.099426	946.170837	60.000153
218.877609	919.942078	957.613464	950.257385	80.473030
219.253983	909.465332	955.384338	948.177002	84.304245
219.630295	911.768616	953.303894	954.195557	102.146759
220.006592	919.941895	948.622864	951.372070	109.585472
220.382889	929.229797	943.421631	958.430847	205.759537
220.759140	918.158691	952.040833	962.071594	129.604858
221.135391	910.728455	954.641418	968.387390	131.302765
221.511581	907.310547	964.820984	967.347107	104.392464
221.887772	911.917236	961.700195	967.570007	111.790802
222.263931	915.855286	968.238770	963.260559	90.496605
222.640060	917.118469	966.381165	970.170654	107.692413
223.016159	923.954346	965.563904	969.873474	110.357162
223.392212	923.880066	957.762024	976.412048	155.044113
223.768265	917.489990	959.768250	969.576172	123.198502
224.144302	911.099915	961.477234	962.145935	101.327385
224.520294	916.003906	972.696960	956.053162	70.642258
224.896286	922.765442	975.743347	952.783875	56.662174
225.272217	923.879944	975.817566	955.087219	60.086067
225.648148	925.143066	978.938293	961.254395	67.127380
226.024048	924.920227	982.802063	965.043762	69.319733
226.399902	923.136963	989.860840	969.279053	69.153793
226.775772	918.976074	982.504883	960.139832	64.795418
227.151581	920.462158	983.545105	956.721863	57.479408
227.527374	924.028625	981.241699	953.080994	50.779247
227.903137	918.753174	984.733948	953.303894	52.364830
228.278870	925.886230	977.526550	949.737366	46.187038
228.654572	925.886230	973.737122	948.622803	47.515461
229.030273	938.294739	966.306824	954.269836	57.029305
229.405930	929.749939	962.666016	955.533020	78.329750
229.781555	929.155579	957.910645	954.789978	89.147423
230.157181	924.697449	962.963318	947.582581	59.805599
230.532761	922.022461	962.740417	957.019043	85.948769
230.908325	915.706726	964.820801	966.455383	103.328133
231.283859	914.889343	968.387390	972.548279	107.777649
231.659332	920.239197	961.328613	955.235657	85.171471
232.034821	925.514648	959.471008	945.056213	57.549057
232.410263	920.090576	949.663086	943.644531	79.648140
232.785690	915.706726	956.573242	950.331848	84.727364
233.161087	908.425110	960.288391	948.474304	77.220711
233.536469	915.038025	960.734192	944.759094	65.040619
233.911804	914.666504	964.300781	949.440186	70.059814
234.287140	921.130859	960.882813	953.675476	81.869225
234.662430	928.338196	968.610352	967.792969	97.970352
235.037704	932.499207	972.399719	969.056091	91.620087
235.412933	928.486816	976.189148	969.873352	86.759987
235.788162	919.124573	974.554504	959.768250	73.324425
236.163345	916.747009	969.130371	958.802307	80.283691
236.538513	921.725281	970.542175	958.207947	74.733688
236.913635	917.415710	971.433777	953.675354	67.125031
237.288742	924.325928	970.764954	954.344055	64.639870
237.663834	930.047180	970.393494	957.762024	68.692383
238.038879	930.790222	971.730957	965.638184	85.118065
238.413910	920.536438	971.210754	965.935364	89.589615
238.788910	907.236267	969.799072	961.625793	86.935883
239.163879	911.397156	970.467773	962.666016	86.792488
239.538834	919.719055	966.083984	961.923035	91.025650
239.913757	926.629333	970.765076	964.969421	86.868568
240.288651	926.554993	976.709290	964.597961	75.851860
240.663528	922.394043	991.198303	971.285156	71.058266
241.038361	920.313538	985.476868	973.514221	81.642059
241.413177	922.914124	977.006409	967.570007	82.554993
241.787979	916.375488	972.548279	954.121155	67.195641
242.162735	918.976074	977.898132	954.715637	60.655659
242.537476	913.626282	983.396484	955.310059	59.744381
242.912170	923.360046	989.117859	958.653625	53.672070
243.286865	912.288879	996.771057	948.771423	43.183716
243.661514	915.855286	1001.154968	947.062500	36.585381
244.036148	912.363098	998.777161	953.675476	47.807472
244.410751	926.703552	992.164307	957.464844	46.991959
244.785339	928.709717	984.659668	963.111877	61.487381
245.159882	931.830383	984.362488	960.362610	54.313885
245.534378	928.635437	991.495422	955.310059	42.434978
245.908890	919.421875	990.306641	953.303894	47.798733
246.283356	913.774902	988.449036	953.898254	53.731258
246.657791	909.688171	989.786621	961.551514	64.749496
247.032196	915.929626	1002.640930	966.158264	57.926285
247.406586	918.827454	1004.275574	963.483398	52.260887
247.780960	924.920227	998.628601	955.755920	41.834721
248.155289	923.657043	996.845276	952.115051	38.883312
248.529602	926.109070	1001.674988	951.743591	33.923389
248.903870	921.502380	1001.377747	954.121155	40.837090
249.278122	929.601379	997.588379	955.310059	37.814110
249.652344	927.520935	1003.383972	958.505066	40.842197
250.026550	925.440430	1000.337463	966.901306	55.357166
250.400711	919.570496	1003.978333	970.690735	60.563381
250.774857	922.393982	998.257141	969.130432	61.606255
251.148987	920.907898	1003.681213	957.242004	43.895916
251.523071	916.895508	999.297302	961.997314	54.734009
251.897125	921.353760	997.662598	972.325378	66.796478
252.271164	919.273254	1001.229187	980.573059	74.796059
252.645187	919.273254	1001.972168	967.124268	57.861721
253.019165	916.524109	1004.795715	963.409119	53.114487
253.393112	929.601379	1009.848328	969.056091	49.166618
253.767044	925.143250	1011.111511	971.508118	53.932541
254.140930	918.381592	1011.260010	968.833191	54.320045
254.514801	912.140137	1000.783386	966.455505	61.274117
254.888657	915.409485	998.034180	967.867249	63.489208
255.262466	913.180420	994.839172	973.217041	73.521355
255.636276	914.963684	1000.263184	975.000305	70.383324
256.010010	921.650940	1007.247620	975.594727	63.020885
256.383759	929.304138	1010.739929	971.582458	51.916142
256.757446	927.149353	1008.808044	964.449402	45.677990
257.131134	920.685059	1006.207458	969.576172	57.167610
257.504791	912.363098	1009.551086	968.758850	58.027493
257.878418	907.979309	1010.888489	967.272766	57.617268
258.252014	908.276550	1013.712097	968.238770	56.870972
258.625580	914.517883	1020.622253	969.799133	52.100822
258.999115	915.112305	1032.139160	975.594727	51.682514
259.372650	917.118469	1051.606445	970.839355	39.944752
259.746124	912.214539	1058.219360	965.786804	36.692120
260.119598	911.545715	1068.696167	963.483398	33.049656
260.493042	912.957520	1069.810547	965.861084	33.728111
260.866425	915.929688	1073.674316	970.393555	34.526608
261.239838	918.010071	1076.274902	966.158386	30.422625
261.613159	918.455872	1070.925171	968.535950	32.846008
261.986511	923.136963	1064.089355	962.071594	27.622540
262.359802	927.000732	1051.755005	968.610291	33.353214
262.733063	926.257629	1049.600220	968.684570	34.397640
263.106293	920.684875	1044.547729	978.121033	46.370770
263.479523	920.759277	1039.643677	980.201477	50.000000
263.852692	922.393860	1038.454956	973.737244	44.238239
264.225861	923.582764	1040.981079	967.124268	37.088696
264.598969	923.137024	1043.284546	964.672180	34.570133
264.972076	915.855286	1044.324829	962.517517	36.321629
265.345154	913.403381	1043.953247	971.062256	44.166168
265.718201	910.728516	1044.027588	965.861084	41.360054
266.091217	914.592224	1046.033569	972.548279	44.092712
266.464203	918.604553	1044.993408	959.099426	32.039909
266.837158	923.731445	1050.046021	966.083984	33.529415
267.210114	922.691223	1049.228638	969.427551	36.934792
267.583038	920.982239	1058.368042	983.247864	45.321732
267.955902	920.685059	1067.581421	983.619446	42.842712
268.328766	925.366028	1071.073730	977.898132	36.053074
268.701569	922.914063	1073.971558	967.198486	29.316271
269.074371	915.632385	1073.377075	971.062256	35.138977
269.447144	911.917297	1083.779541	965.415283	31.128410
269.819885	918.010071	1097.228271	970.765076	29.436188
270.192596	922.393982	1098.119995	969.278992	26.680746
270.565277	918.827454	1105.252930	985.625671	35.831055
270.937927	914.443604	1103.098267	994.987793	42.693981
271.310577	917.861511	1107.407837	993.278809	39.788319
271.683136	927.223633	1109.413940	985.476990	31.973906
272.055725	924.325867	1120.707886	973.365662	24.971632
272.428284	927.520813	1138.986450	965.043762	17.744230
272.800812	915.483826	1149.388794	960.511292	19.250324
273.173279	923.137024	1144.336304	961.923096	17.534447
273.545776	913.477600	1138.837891	980.201477	29.607645
273.918152	922.616882	1124.794556	984.808289	30.760769
274.290558	918.753113	1122.565552	983.768005	31.899374
274.662964	920.907959	1127.692383	973.142761	25.260511
275.035278	916.375488	1125.834717	976.114746	28.520710
275.407593	914.443604	1134.602417	978.195313	28.957146
275.779907	916.747009	1131.036011	977.526611	28.363379
276.152161	913.329102	1150.503296	971.285156	24.436071
276.524384	914.963684	1155.927368	959.842590	18.624760
276.896606	906.418945	1154.515747	959.916809	21.563303
277.268799	911.991638	1154.812866	965.117981	21.878788
277.640930	904.412781	1153.921265	974.851746	28.231091
278.013031	917.118469	1164.546631	974.554504	23.213217
278.385162	920.685059	1157.785156	975.669006	23.190184
278.757233	932.201904	1160.162720	977.972412	20.078236
279.129272	932.944885	1162.986206	974.405945	18.023310
279.501282	928.561035	1173.611450	973.514343	18.344515
279.873230	917.415710	1175.171753	967.495789	19.429255
280.245178	914.740784	1183.196533	970.987976	20.952127
280.617126	917.935852	1190.849731	969.427551	18.867380
280.988983	922.765442	1201.252075	975.000244	18.756664
281.360870	919.050293	1207.270630	976.189148	19.824713
281.732697	915.706726	1211.357300	973.960144	19.703468
282.104492	921.799561	1225.920654	965.563904	14.390433
282.476288	918.307312	1232.310669	960.882813	13.558931
282.848053	919.347595	1243.678833	967.718567	14.914065
283.219757	918.455994	1244.644897	976.486328	17.790407
283.591461	920.982239	1249.028809	980.052917	18.006796
283.963135	921.353699	1251.332275	972.548340	15.514535
284.334747	916.969788	1251.109375	976.634949	17.856358
284.706360	917.341370	1263.220581	980.721680	18.324406
285.077942	918.976013	1273.920166	980.424500	17.312157
285.449524	924.920227	1276.297852	978.046692	15.119478
285.821014	926.257751	1281.721924	971.582336	12.750816
286.192535	922.839844	1295.467896	977.377991	14.636082
286.563995	925.514648	1322.514038	974.405945	12.315207
286.935425	930.195618	1333.362305	977.303711	11.684521
287.306824	934.133728	1326.452148	974.034424	10.170487
287.678223	929.229797	1323.108521	977.303711	12.205257
288.049561	920.462097	1325.114746	977.229309	14.028627
288.420898	919.867676	1326.898071	979.012634	14.530846
288.792145	918.455994	1329.052734	981.018860	15.237059
289.163452	920.239197	1319.170410	983.470886	15.850274
289.534668	917.564270	1326.154907	982.282043	15.839270
289.905914	913.031921	1327.120850	979.681396	16.095449
290.277039	916.969910	1343.021606	980.870178	14.998243
290.648193	913.329102	1352.309448	989.043518	17.247791
291.019318	923.657166	1375.269043	990.009460	14.692327
291.390381	922.245422	1384.185547	985.179749	13.623914
291.761475	931.533203	1389.981079	981.538879	10.907603
292.132507	927.446533	1380.544556	987.854675	13.332246
292.503510	930.270020	1378.018188	990.678223	13.491558
292.874481	929.824219	1379.355835	988.746338	13.107448
293.245422	926.852051	1376.012085	984.511047	12.837072
293.616364	924.623047	1384.928345	990.381042	14.285735
293.987213	916.895569	1402.166626	992.832947	15.648446
294.358093	921.799622	1429.287109	994.244690	14.275242
294.728943	916.003906	1442.290039	978.938293	11.958207
295.099731	922.914063	1456.704712	976.040527	9.952678
295.470490	916.746887	1479.441406	970.244934	9.507476
295.841248	919.050293	1507.379272	983.173645	10.899234
296.211975	916.301208	1521.571289	983.990967	11.183397
296.582642	916.821228	1531.824829	982.802185	10.728548
296.953308	918.158691	1545.645142	978.715515	9.650699
297.323883	917.489929	1557.533569	973.588562	8.764813
297.694519	917.787170	1564.889648	971.062256	8.232867
298.065063	917.489990	1567.787476	977.749512	9.266455
298.435608	920.090576	1563.700806	971.433777	7.977375
298.806122	924.771667	1552.406738	981.464600	9.032785
299.176575	931.236023	1521.571289	982.356262	8.659527
299.547028	928.263916	1508.568237	990.752502	10.768244
299.917450	925.737610	1490.066772	983.916687	10.309422
300.287872	920.164856	1496.308228	984.733948	11.207122
300.658234	922.839783	1491.255737	990.901062	11.973851
301.028564	920.016357	1489.620972	992.312805	12.692391
301.398865	924.400208	1488.877930	987.408875	11.162294
301.769135	924.846008	1482.859375	978.121033	9.547267
302.139374	924.771667	1492.072876	977.972412	9.377866
302.509583	922.022461	1484.345581	980.350098	10.372620
302.879791	921.056458	1492.964478	991.049622	12.238535
303.249939	924.251526	1488.506348	989.637878	11.588089
303.620087	920.833679	1493.558960	990.009460	12.078353
303.990173	915.112366	1483.750977	980.350159	11.472628
304.360260	913.923523	1484.568359	977.749573	11.184899
304.730286	919.941956	1484.939819	975.446228	9.823802
305.100281	922.393860	1490.735352	977.898132	9.766007
305.470276	925.737610	1493.038940	982.802063	10.058931
305.840179	920.907898	1499.726074	981.464661	10.462139
306.210144	926.926453	1514.586548	983.470886	9.621963
306.579987	921.725281	1520.456543	983.396545	10.300324
306.949890	920.907959	1529.967407	984.436768	10.430642
307.319702	919.273254	1530.338867	984.659668	10.700392
307.689484	922.319641	1532.122070	990.678223	11.209955
308.059265	921.502258	1535.911499	995.804993	12.093362
308.429016	918.233093	1553.818481	990.752441	11.409851
308.798737	920.239197	1580.716187	991.346924	10.766117
309.168396	920.313538	1611.774780	987.854675	9.767885
309.538055	922.245361	1639.638062	991.941345	9.715178
309.907684	919.124695	1655.241699	990.826721	9.740575
310.277313	927.520813	1662.894897	985.179871	7.840779
310.646851	929.824219	1666.312866	990.975403	8.303072
311.016388	931.533203	1681.321899	991.867004	8.046774
311.385895	923.211243	1682.510742	999.371643	10.030351
311.755371	919.867676	1677.161133	994.319031	9.831243
312.124817	921.799561	1680.058960	989.266418	8.897596
312.494232	923.954346	1688.677856	983.990906	7.850754
312.863617	921.725281	1686.151489	987.037354	8.543934
313.232971	919.124695	1677.161011	994.170410	9.900016
313.602295	919.198914	1671.216797	998.702942	10.572093
313.971619	922.245361	1685.334351	995.656494	9.620258
314.340820	923.731445	1685.854492	990.306702	8.735499
314.710083	918.753113	1694.919312	989.638000	9.132694
315.079285	915.929688	1698.411621	997.811279	10.464343
315.448486	915.038025	1711.563110	1003.755432	11.138056
315.817596	924.028625	1707.253784	1006.356018	10.511332
316.186707	925.811829	1702.944214	1005.687317	10.278234
316.555786	922.468262	1688.232056	1009.699646	11.391422
316.924866	912.511719	1680.207397	1014.975098	13.346874
317.293884	906.121643	1662.300415	1017.650085	14.748952
317.662872	904.932861	1663.340820	1016.832703	14.754571
318.031830	907.682068	1669.953613	1017.352844	14.387363
318.400757	908.796570	1679.835938	1016.386902	13.953935
318.769684	914.517883	1680.875977	1011.482910	12.652705
319.138550	925.589050	1686.746094	1016.461243	11.938692
319.507416	924.697327	1695.885254	1022.554016	12.689085
319.876190	921.725281	1703.390015	1027.532227	13.536103
320.244995	915.483826	1710.077148	1028.869751	14.269680
320.613770	922.022461	1708.591187	1029.464233	13.659554
320.982483	926.109131	1700.714844	1041.129761	14.848927
321.351166	923.434265	1684.516968	1042.318604	15.620423
321.719818	926.629211	1675.526367	1048.485718	16.271461
322.088440	928.338196	1688.826538	1046.479492	15.534925
322.457062	926.852112	1705.693237	1055.247192	16.485401
322.825623	921.725281	1726.795288	1063.123413	17.563457
323.194183	908.870911	1749.457520	1075.011719	19.764866
323.562653	911.545837	1773.680298	1081.327515	19.693178
