Jaz Data File
++++++++++++++++++++++++++++++++++++
Date: Fri Jun 04 16:02:03 2021
User: jaz
Dark Spectrum Present: Yes
Reference Spectrum Present: Yes
Processed Spectrum Present: Yes
Spectrometers: JAZA3586
Integration Time (usec): 24600 (JAZA3586)
Spectra Averaged: 10 (JAZA3586)
Boxcar Smoothing: 1 (JAZA3586)
Correct for Electrical Dark: No (JAZA3586)
Strobe/Lamp Enabled: Yes (JAZA3586)
Correct for Detector Non-linearity: No (JAZA3586)
Correct for Stray Light: No (JAZA3586)
Number of Pixels in Processed Spectrum: 2048
>>>>>Begin Processed Spectral Data<<<<<
W	D	R	S	P
191.335022	0.000000	0.000000	0.000000	0.000000
191.713211	387.488678	386.225494	390.460815	-235.289429
192.091385	782.481934	776.240479	784.636719	-34.523762
192.469528	1172.942749	1174.948853	1181.338989	418.534760
192.847641	1184.311157	1189.289429	1190.255249	119.400719
193.225739	1196.571167	1199.320190	1196.571167	0.000000
193.603790	1211.877319	1200.360474	1192.112915	171.612991
193.981842	1215.518188	1204.224121	1200.806274	130.262314
194.359863	1208.905273	1203.852661	1199.617432	183.822571
194.737854	1212.768921	1214.849487	1211.431519	-64.280685
195.115829	1216.855591	1212.694702	1204.372803	300.002930
195.493774	1224.806030	1210.465576	1207.196289	122.797653
195.871704	1219.159058	1204.892944	1205.338745	96.875107
196.249603	1223.468628	1208.533691	1205.487427	120.396904
196.627457	1216.781372	1210.985718	1207.864990	153.845993
197.005310	1218.787598	1215.221069	1212.843262	166.670090
197.383133	1212.026001	1212.248901	1212.917603	400.000000
197.760910	1210.688599	1217.821655	1207.493530	-44.792416
198.138687	1208.013672	1216.707031	1204.001343	-46.153954
198.516449	1204.521484	1217.301392	1202.440918	-16.279980
198.894180	1206.527466	1213.883545	1202.366577	-56.563946
199.271866	1202.069458	1216.038330	1201.029297	-7.446279
199.649536	1199.171753	1215.221069	1202.738159	22.221546
200.027191	1201.846558	1219.901978	1203.406860	8.641742
200.404816	1200.360474	1213.437622	1204.818726	34.091927
200.782410	1202.440918	1226.069214	1209.945557	31.761236
201.159988	1203.183960	1232.756470	1219.679077	55.778549
201.537537	1212.397461	1237.586060	1220.422119	31.858295
201.915070	1209.796875	1236.694458	1218.416016	32.044292
202.292557	1204.149902	1234.911255	1212.768921	28.018984
202.670029	1196.422485	1242.490112	1210.688477	30.967497
203.047485	1196.050903	1249.400269	1208.905396	24.094931
203.424911	1191.592773	1261.734497	1209.945679	26.165461
203.802292	1197.462524	1257.053345	1209.574097	20.324560
204.179688	1197.314087	1248.359985	1201.400757	8.005874
204.557037	1199.691772	1237.957642	1208.459473	22.912586
204.934357	1188.397827	1239.518066	1206.676147	35.755547
205.311661	1187.060181	1244.867798	1211.208618	41.773800
205.688934	1192.038574	1253.858398	1196.868164	7.812364
206.066177	1193.004517	1257.796387	1189.883789	-4.816542
206.443390	1195.902222	1252.743774	1179.778687	-28.365755
206.820587	1191.741333	1246.428101	1176.955200	-27.037863
207.197769	1198.057129	1237.363281	1185.351318	-32.325245
207.574921	1199.914551	1239.517944	1188.026245	-30.018402
207.952042	1195.307739	1233.127930	1195.233521	-0.196241
208.329147	1190.626831	1241.747070	1187.951904	-5.232618
208.706223	1191.444092	1237.586060	1199.468872	17.391500
209.083267	1196.868286	1233.499390	1193.598999	-8.924894
209.460297	1206.378906	1227.109497	1197.834106	-41.218311
209.837280	1203.926880	1224.806030	1197.611328	-30.248127
210.214264	1195.456421	1231.567627	1199.691772	11.728635
210.591217	1186.168579	1228.595581	1202.069458	37.478207
210.968124	1186.094360	1228.223999	1201.252075	35.978745
211.345016	1190.032349	1233.053589	1206.527466	38.341797
211.721893	1193.004517	1244.496216	1208.310913	29.725950
212.098724	1191.592773	1248.657227	1203.035400	20.052111
212.475555	1193.227417	1249.771851	1189.660889	-6.307479
212.852356	1191.369873	1240.929810	1190.923950	-0.899765
213.229126	1188.917847	1246.799683	1194.267578	9.242505
213.605865	1193.598999	1250.663330	1199.988892	11.197700
213.982590	1197.388550	1256.830444	1195.233521	-3.625438
214.359283	1196.645386	1256.681885	1187.431763	-15.346703
214.735931	1192.261475	1249.028687	1190.329590	-3.403170
215.112579	1187.580444	1251.703613	1194.267700	10.428767
215.489197	1193.524536	1248.880249	1197.314087	6.845817
215.865799	1187.431885	1243.381714	1202.738159	27.357141
216.242355	1187.357544	1238.774902	1206.527466	37.282978
216.618896	1182.379272	1232.310547	1209.945557	55.208454
216.995407	1182.230469	1236.545898	1203.481201	39.124668
217.371902	1183.270752	1230.824585	1195.605103	25.937658
217.748367	1195.084961	1229.858521	1193.152954	-5.555965
218.124802	1206.304565	1228.001099	1183.865234	-103.423576
218.501236	1204.001221	1234.168213	1181.041748	-76.107925
218.877609	1188.843384	1244.570557	1183.939453	-8.799891
219.253983	1176.063354	1250.366211	1193.970337	24.099993
219.630295	1180.744507	1244.719238	1191.518433	16.840908
220.006592	1182.453613	1247.096802	1190.180908	11.953765
220.382889	1194.119019	1249.846069	1194.416260	0.533388
220.759140	1195.307861	1256.904785	1199.468872	6.755225
221.135391	1203.852661	1257.499146	1198.205811	-10.526040
221.511581	1203.258301	1251.332153	1195.902466	-15.301114
221.887772	1196.422485	1251.555054	1193.821899	-4.716969
222.263931	1193.227417	1245.833740	1196.571045	6.355943
222.640060	1189.066528	1242.713013	1194.119019	9.418120
223.016159	1190.329590	1241.821411	1195.976563	10.966737
223.392212	1188.843506	1243.381714	1196.570923	14.168814
223.768265	1186.094238	1250.514771	1198.577148	19.377222
224.144302	1185.276978	1253.486938	1199.543091	20.914999
224.520294	1188.249023	1251.183594	1191.369751	4.958686
224.896286	1190.106567	1257.573608	1189.066406	-1.541732
225.272217	1193.598877	1257.127808	1186.168579	-11.695928
225.648148	1188.769409	1260.397095	1193.450317	6.535054
226.024048	1191.964233	1254.452759	1198.799927	10.939117
226.399902	1191.146851	1262.106079	1208.310913	24.188625
226.775772	1198.428589	1261.140015	1214.106567	25.000195
227.151581	1191.592651	1265.152344	1213.363403	29.596035
227.527374	1192.558594	1260.322754	1209.574097	25.109886
227.903137	1188.471924	1273.474243	1204.595703	18.968634
228.278870	1188.992065	1284.248169	1205.264526	17.082853
228.654572	1186.911621	1300.000366	1199.691772	11.300993
229.030273	1183.939575	1312.111816	1196.571045	9.855074
229.405930	1187.729126	1317.461548	1194.639282	5.326468
229.781555	1192.856079	1320.730957	1198.057007	4.067201
230.157181	1197.982910	1324.891846	1200.509033	1.990501
230.532761	1198.279907	1332.024902	1201.474976	2.388926
230.908325	1194.936401	1332.396362	1204.818481	7.189061
231.283859	1189.512207	1324.297363	1206.007446	12.238172
231.659332	1186.020020	1311.442993	1208.830933	18.187189
232.034821	1189.661011	1304.978638	1201.474976	10.244718
232.410263	1187.580444	1303.567017	1200.360474	11.018542
232.785690	1192.855957	1298.588745	1196.793945	3.724472
233.161087	1187.283203	1297.028198	1200.434692	11.983680
233.536469	1194.564819	1292.272827	1202.143677	7.756639
233.911804	1192.930176	1291.009766	1208.608032	15.984831
234.287140	1193.524536	1292.421509	1203.852661	10.443317
234.662430	1192.558594	1291.604248	1195.753784	3.225977
235.037704	1197.091064	1300.223267	1191.369873	-5.547434
235.412933	1202.440918	1307.430786	1197.016724	-5.166398
235.788162	1197.091187	1317.164307	1201.995239	4.084222
236.163345	1193.301758	1320.507935	1194.862183	1.226689
236.538513	1195.233521	1319.244751	1192.484375	-2.216852
236.913635	1197.611206	1312.260376	1196.050903	-1.360937
237.288742	1196.942505	1309.585571	1196.570923	-0.329876
237.663834	1191.444214	1304.012817	1194.787720	2.970194
238.038879	1189.958130	1307.802124	1192.632935	2.269784
238.413910	1192.558716	1315.380981	1194.416138	1.512284
238.788910	1196.868286	1316.644165	1194.490479	-1.985214
239.163879	1202.069458	1317.089966	1191.889771	-8.850324
239.538834	1201.846558	1314.638062	1193.598877	-7.312325
239.913757	1198.800171	1325.857666	1207.196167	6.608029
240.288651	1200.954956	1341.238281	1215.220947	10.169414
240.663528	1200.657715	1351.046387	1218.267456	11.709487
241.038361	1196.793945	1366.798462	1204.149780	4.326847
241.413177	1193.524536	1384.110962	1198.205688	2.456183
241.787979	1199.394531	1414.649536	1204.670044	2.450820
242.162735	1194.490601	1437.163208	1210.837036	6.736003
242.537476	1190.849731	1452.989624	1212.768921	8.361638
242.912170	1187.729004	1465.101074	1205.933105	6.563062
243.286865	1186.837280	1482.042114	1204.892944	6.116317
243.661514	1186.391602	1493.484741	1208.830933	7.307012
244.036148	1187.134644	1488.506470	1206.453247	6.410222
244.410751	1196.422485	1474.908813	1201.252075	1.734229
244.785339	1201.995117	1457.967896	1196.422485	-2.177041
245.159882	1201.252075	1450.091797	1197.982788	-1.313812
245.534378	1201.549194	1447.639771	1201.920776	0.150994
245.908890	1200.806274	1471.639648	1199.023071	-0.658413
246.283356	1200.360474	1503.515625	1197.239746	-1.029416
246.657791	1195.976685	1551.292114	1199.766113	1.066497
247.032196	1191.741333	1598.846069	1204.001343	3.011513
247.406586	1194.787720	1662.300415	1199.543091	1.017164
247.780960	1191.667114	1722.188477	1198.428589	1.274496
248.155289	1189.363647	1747.599976	1200.211792	1.943289
248.529602	1183.047852	1741.878784	1201.475098	3.297463
248.903870	1195.159302	1695.067993	1203.704224	1.709296
249.278122	1198.725830	1649.148804	1199.543213	0.181470
249.652344	1201.995117	1596.096680	1207.270630	1.338618
250.026550	1195.456543	1558.648071	1202.366577	1.902587
250.400711	1199.989136	1534.871460	1207.047729	2.107783
250.774857	1201.400757	1520.456665	1207.047729	1.769901
251.148987	1197.759888	1518.004517	1199.022949	0.394405
251.523071	1190.255249	1513.769165	1198.725708	2.618267
251.897125	1186.837280	1524.766113	1188.471924	0.483724
252.271164	1195.159302	1534.574097	1197.685425	0.744258
252.645187	1201.177856	1558.127930	1189.660767	-3.226527
253.019165	1196.645264	1576.852173	1192.410034	-1.113928
253.393112	1194.787720	1585.099976	1191.815552	-0.761485
253.767044	1195.307983	1572.914429	1194.416138	-0.236184
254.140930	1201.475098	1541.781616	1192.930176	-2.510949
254.514801	1196.942505	1523.131470	1197.759888	0.250586
254.888657	1196.125244	1503.738647	1192.930176	-1.038664
255.262466	1192.855835	1508.642578	1194.119019	0.400012
255.636276	1192.038452	1503.589966	1195.233521	1.025535
256.010010	1192.781616	1508.493774	1201.697876	2.824174
256.383759	1195.159302	1519.861938	1205.413086	3.157900
256.757446	1196.050903	1540.221069	1199.097290	0.885140
257.131134	1190.775269	1566.895874	1200.880737	2.686763
257.504791	1188.546265	1589.409668	1204.372803	3.948112
257.878418	1192.187134	1620.319458	1206.081665	3.245383
258.252014	1190.849731	1657.099243	1210.985718	4.318715
258.625580	1193.821777	1694.027710	1211.059937	3.446213
258.999115	1196.496704	1755.401733	1216.038330	3.496413
259.372650	1199.840332	1837.803345	1216.038330	2.539018
259.746124	1190.478149	1936.105957	1217.450073	3.617344
260.119598	1183.122192	2027.572632	1214.329468	3.695572
260.493042	1179.852905	2101.429443	1213.734985	3.676535
260.866425	1188.620605	2141.181396	1216.261230	2.901718
261.239838	1191.295410	2115.547119	1212.768921	2.323340
261.613159	1198.948608	2026.160767	1199.394531	0.053907
261.986511	1194.639282	1921.914063	1193.747559	-0.122612
262.359802	1194.862061	1844.342163	1193.004517	-0.286005
262.733063	1191.146851	1812.466309	1205.561768	2.320049
263.106293	1197.685425	1800.875000	1206.527710	1.465921
263.479523	1194.564819	1787.277710	1201.326294	1.140767
263.852692	1197.314087	1784.156860	1196.348022	-0.164621
264.225861	1195.010620	1772.862915	1194.639160	-0.064283
264.598969	1203.852661	1773.754517	1201.326538	-0.443256
264.972076	1204.447144	1764.764038	1202.589478	-0.331538
265.345154	1204.372681	1772.045532	1201.697876	-0.471188
265.718201	1201.474976	1786.683105	1203.258179	0.304713
266.091217	1197.091187	1816.329956	1201.400757	0.695946
266.464203	1191.146973	1851.846558	1193.598877	0.371107
266.837158	1188.843628	1894.124878	1194.341919	0.779588
267.210114	1190.255371	1932.836548	1201.103394	1.460853
267.583038	1194.342041	1960.328735	1220.347900	3.395080
267.955902	1189.958130	1966.272949	1220.942383	3.991197
268.328766	1188.174805	1969.913696	1212.100342	3.060554
268.701569	1189.586548	1969.022095	1202.440918	1.649190
269.074371	1193.598877	1982.842407	1194.639160	0.131808
269.447144	1195.679321	1986.185913	1201.252075	0.704960
269.819885	1195.307861	2008.030884	1198.205688	0.356558
270.192596	1201.549316	2029.504395	1202.069458	0.062822
270.565277	1202.218140	2077.132568	1191.072632	-1.273897
270.937927	1208.310791	2138.655273	1190.403931	-1.924756
271.310577	1201.846558	2206.642334	1188.546265	-1.323681
271.683136	1200.731934	2290.901611	1200.286133	-0.040893
272.055725	1192.038452	2350.640869	1203.704102	1.006873
272.428284	1194.341919	2380.659180	1205.190063	0.914439
272.800812	1191.592773	2357.179443	1207.419189	1.357807
273.173279	1188.843384	2322.554443	1201.474976	1.114181
273.545776	1186.242798	2302.789795	1209.648315	2.096241
273.918152	1189.735229	2282.059326	1207.865112	1.659753
274.290558	1196.199585	2252.784180	1214.403687	1.722919
274.662964	1199.691772	2237.403564	1213.586304	1.338959
275.035278	1199.245972	2224.474854	1202.589478	0.326123
275.407593	1191.146851	2239.260986	1204.447144	1.268974
275.779907	1190.106567	2248.400391	1203.629761	1.277830
276.152161	1190.998169	2273.885986	1218.861694	2.573076
276.524384	1191.443970	2305.910889	1215.815308	2.186816
276.896606	1188.769287	2340.981689	1216.038330	2.366668
277.268799	1193.227417	2373.451904	1207.047729	1.170990
277.640930	1202.515259	2388.015137	1204.967285	0.206835
278.013031	1202.812378	2398.863281	1200.657715	-0.180148
278.385162	1199.691772	2404.064697	1201.103516	0.117218
278.757233	1193.970337	2396.411377	1202.366577	0.698266
279.129272	1203.035522	2384.374268	1203.852783	0.069181
279.501282	1201.177856	2381.996582	1204.744385	0.302039
279.873230	1202.069458	2407.185303	1207.716431	0.468583
280.245178	1192.187134	2443.965088	1210.317017	1.448331
280.617126	1189.437988	2506.305176	1218.564575	2.211809
280.988983	1188.323364	2566.193115	1213.809204	1.849655
281.360870	1190.478149	2625.858154	1215.592529	1.749668
281.732697	1191.518433	2684.780273	1203.332397	0.791152
282.104492	1189.809448	2746.376953	1207.344849	1.126543
282.476288	1187.431763	2805.150391	1201.474976	0.868087
282.848053	1190.775391	2847.577393	1197.313965	0.394650
283.219757	1196.125244	2867.639404	1187.803223	-0.497873
283.591461	1195.605103	2852.555908	1178.738281	-1.017943
283.963135	1194.267700	2831.676758	1188.026001	-0.381194
284.334747	1195.159302	2827.441406	1196.050903	0.054623
284.706360	1198.205688	2861.174805	1205.858887	0.460213
285.077942	1198.428589	2914.375732	1201.846436	0.199181
285.449524	1195.530762	2967.427734	1205.561646	0.566110
285.821014	1198.651489	3006.436768	1206.899048	0.456224
286.192535	1197.982788	3066.919189	1202.589600	0.246494
286.563995	1197.388428	3120.863037	1198.057129	0.034765
286.935425	1192.187256	3173.915039	1192.187134	-0.000006
287.306824	1193.078735	3157.642578	1200.731934	0.389562
287.678223	1195.605103	3115.438721	1201.772217	0.321232
288.049561	1202.738159	3054.510498	1206.676147	0.212660
288.420898	1202.663818	3007.105469	1208.162231	0.304715
288.792145	1201.326294	2986.672119	1208.013672	0.374570
289.163452	1192.484253	2991.799072	1207.344849	0.825903
289.534668	1187.431641	3032.294189	1203.183960	0.853848
289.905914	1182.304810	3074.349365	1205.041504	1.201700
290.277039	1188.769165	3150.732422	1200.286133	0.587012
290.648193	1187.060181	3225.183594	1202.143677	0.740068
291.019318	1189.214966	3303.127197	1199.543091	0.488579
291.390381	1181.859131	3336.786377	1201.474976	0.910279
291.761475	1183.865356	3328.687500	1201.697876	0.831422
292.132507	1182.825073	3301.418701	1200.360474	0.827691
292.503510	1179.852905	3267.462158	1204.521362	1.181661
292.874481	1183.493652	3247.177734	1202.515259	0.921731
293.245422	1187.134644	3249.332275	1202.440918	0.742231
293.616364	1188.992188	3284.106201	1208.756714	0.943363
293.987213	1188.620605	3327.870361	1210.539917	1.024626
294.358093	1190.106689	3409.305908	1209.202515	0.860483
294.728943	1195.902344	3496.983154	1200.806274	0.213114
295.099731	1198.800049	3603.384521	1205.041504	0.259565
295.470490	1194.416138	3661.860596	1206.007446	0.469770
295.841248	1192.112793	3702.355713	1210.911499	0.748880
296.211975	1192.261475	3742.330811	1201.029175	0.343822
296.582642	1197.313965	3815.890625	1201.400757	0.156069
296.953308	1196.348145	3898.218018	1201.474976	0.189751
297.323883	1190.552612	3972.149170	1213.734863	0.833415
297.694519	1186.391602	4024.384033	1215.146606	1.013216
298.065063	1191.147095	4035.455078	1212.546143	0.752346
298.435608	1195.382202	3997.709229	1206.453247	0.395066
298.806122	1196.719604	3882.242920	1211.728882	0.558896
299.176575	1197.165405	3752.212891	1214.998169	0.697943
299.547028	1196.942505	3644.473877	1219.381958	0.916820
299.917450	1197.091187	3595.657227	1217.227173	0.839501
300.287872	1197.239746	3577.899170	1211.282837	0.589882
300.658234	1196.719604	3559.768799	1207.344849	0.449641
301.028564	1198.577271	3535.249023	1207.344971	0.375222
301.398865	1196.125244	3521.800049	1213.066284	0.728435
301.769135	1195.605103	3506.642578	1215.146729	0.845578
302.139374	1193.524536	3519.571289	1214.329468	0.894433
302.509583	1190.923950	3534.283203	1216.930054	1.109779
302.879791	1192.038452	3539.707764	1211.357300	0.822895
303.249939	1189.958008	3516.822266	1217.227173	1.171928
303.620087	1197.982788	3488.364014	1213.363403	0.671531
303.990173	1195.605103	3468.005127	1214.255005	0.820714
304.360260	1195.456421	3454.110352	1212.100220	0.736890
304.730286	1186.243042	3436.054932	1204.372681	0.805829
305.100281	1186.763062	3434.494385	1205.635986	0.839643
305.470276	1183.939575	3457.008057	1197.239868	0.585125
305.840179	1185.648560	3471.051514	1203.258301	0.770531
306.210144	1186.614502	3482.791260	1209.202515	0.983723
306.579987	1194.193359	3489.404297	1215.518188	0.929101
306.949890	1200.211914	3510.134766	1221.536743	0.923184
307.319702	1197.759766	3546.765869	1216.409790	0.793954
307.689484	1193.375977	3583.545898	1218.341675	1.044516
308.059265	1188.843628	3633.922852	1213.883667	1.024099
308.429016	1189.215088	3703.395752	1222.354004	1.318080
308.798737	1191.444092	3776.807373	1215.964111	0.948417
309.168396	1191.221191	3856.682861	1222.205566	1.162439
309.538055	1188.546265	3903.790771	1217.450073	1.064501
309.907684	1185.648560	3950.378174	1220.793701	1.271196
310.277313	1187.803345	3985.821045	1217.152832	1.048939
310.646851	1196.496704	4020.371826	1209.945435	0.476251
311.016388	1207.493530	4042.662842	1207.270508	-0.007866
311.385895	1204.372681	4044.520264	1204.149780	-0.007848
311.755371	1200.732056	4044.891602	1208.979614	0.289982
312.124817	1194.044800	4049.498291	1211.134399	0.598490
312.494232	1196.125244	4037.386963	1202.292358	0.217055
312.863617	1191.890015	4016.136719	1204.149902	0.434094
313.232971	1184.236694	3975.195557	1199.245972	0.537782
313.602295	1190.032349	3947.629150	1203.704102	0.495785
313.971619	1188.694946	3945.325928	1191.295532	0.094339
314.340820	1193.450317	3949.709717	1192.484375	-0.035045
314.710083	1188.174927	3985.226563	1197.016846	0.316116
315.079285	1191.444214	4022.452148	1202.886719	0.404185
315.448486	1189.809570	4070.451904	1197.388306	0.263092
315.817596	1184.608276	4078.922607	1199.468872	0.513441
316.186707	1186.094360	4034.637939	1198.057129	0.419961
316.555786	1189.140747	3955.728516	1206.527710	0.628462
316.924866	1192.187134	3873.326904	1207.121948	0.557032
317.293884	1192.261353	3826.218750	1219.530396	1.035288
317.662872	1194.193359	3804.670898	1225.400513	1.195458
318.031830	1193.970459	3821.017334	1223.691528	1.131349
318.400757	1194.119019	3837.884033	1222.651245	1.079227
318.769684	1192.855957	3864.929932	1223.542847	1.148430
319.138550	1193.153076	3899.555420	1217.821533	0.911485
319.507416	1197.388306	3934.106201	1211.357300	0.510429
