Jaz Data File
++++++++++++++++++++++++++++++++++++
Date: Fri Jun 04 16:58:11 2021
User: jaz
Dark Spectrum Present: Yes
Reference Spectrum Present: Yes
Processed Spectrum Present: Yes
Spectrometers: JAZA3586
Integration Time (usec): 24100 (JAZA3586)
Spectra Averaged: 10 (JAZA3586)
Boxcar Smoothing: 1 (JAZA3586)
Correct for Electrical Dark: No (JAZA3586)
Strobe/Lamp Enabled: Yes (JAZA3586)
Correct for Detector Non-linearity: No (JAZA3586)
Correct for Stray Light: No (JAZA3586)
Number of Pixels in Processed Spectrum: 2048
>>>>>Begin Processed Spectral Data<<<<<
W	D	R	S	P
191.335022	0.000000	0.000000	0.000000	0.000000
191.713211	231.750168	230.487076	228.109329	288.248077
192.091385	464.689209	467.364166	460.825439	-144.442291
192.469528	703.795410	704.909973	698.742737	-453.332245
192.847641	708.996582	712.340149	710.408203	42.219017
193.225739	713.974854	721.850891	712.340149	-20.755419
193.603790	717.392822	729.429871	711.671448	-47.531376
193.981842	725.045959	740.055176	717.987122	-47.030022
194.359863	737.974609	736.934387	726.086182	1142.873901
194.737854	747.708252	733.293640	737.528809	70.618919
195.115829	752.315125	732.699219	745.033386	37.121601
195.493774	749.788757	734.259521	752.537903	-17.703032
195.871704	748.377014	739.906494	752.835144	-52.631123
196.249603	748.005554	740.203674	750.011719	-25.713861
196.627457	749.714417	744.290344	744.290344	100.000000
197.005310	746.816711	745.924988	739.014832	874.921265
197.383133	747.931213	747.782532	741.020996	4647.660156
197.760910	747.039551	745.850769	749.491516	-206.258667
198.138687	748.674255	741.764099	752.909485	-61.289925
198.516449	749.268616	737.603088	747.262512	17.196852
198.894180	746.965149	734.482422	743.770264	25.594450
199.271866	744.884766	737.900391	738.866272	86.170830
199.649536	743.250183	736.934387	735.448425	123.527710
200.027191	745.627747	734.482422	729.578430	144.000443
200.404816	744.884766	732.179016	730.024231	116.959137
200.782410	740.872375	747.708313	739.237793	-23.911608
201.159988	739.312073	758.333557	739.237793	-0.390505
201.537537	734.556702	767.621399	745.627747	33.482975
201.915070	731.213074	765.095032	744.438965	39.035202
202.292557	724.005676	764.723572	749.342957	62.226398
202.670029	717.987305	765.466614	743.027161	52.738461
203.047485	717.021301	764.426331	738.048889	44.357292
203.424911	717.169922	765.243713	733.962219	34.930252
203.802292	721.628113	761.157043	729.206848	19.172628
204.179688	721.256531	755.510071	725.343079	11.930293
204.557037	730.915833	760.414063	718.804504	-41.057812
204.934357	729.875671	756.847473	725.045959	-17.906523
205.311661	731.584656	763.609131	728.686768	-9.048980
205.688934	719.770447	756.104492	735.745544	43.967297
206.066177	718.210144	767.027039	733.442139	31.202301
206.443390	713.083191	763.311829	733.219238	40.088779
206.820587	712.414490	766.506836	726.011902	25.137405
207.197769	702.606445	753.206726	729.429871	53.010429
207.574921	699.634338	752.092102	733.813660	65.155884
207.952042	708.327820	747.039551	743.398743	90.595078
208.329147	725.120300	753.801086	742.804382	61.658291
208.706223	742.061218	765.318054	744.067444	8.626390
209.083267	738.271790	769.256042	739.014893	2.398325
209.460297	734.853943	770.221985	739.386414	12.815159
209.837280	722.891174	754.692688	728.835449	18.691799
210.214264	717.764343	755.064209	728.835388	29.681192
210.591217	715.906738	754.841309	733.070618	44.083904
210.968124	721.107971	762.345886	741.021057	48.288296
211.345016	727.126465	763.386169	743.621643	45.491760
211.721893	730.395813	762.866028	738.123230	23.798479
212.098724	733.293640	761.751465	733.070618	-0.783695
212.475555	730.098572	760.488342	734.482422	14.425414
212.852356	726.457764	758.927917	737.974609	35.469021
213.229126	720.439270	756.327332	732.327576	33.126072
213.605865	718.730225	755.658691	730.618652	32.193127
213.982590	713.677734	755.212891	723.114075	22.718924
214.359283	703.349609	758.482178	726.011902	41.105091
214.735931	709.219482	760.859863	723.485596	27.625887
215.112579	717.095642	763.014648	725.045898	17.313650
215.489197	729.504150	757.441895	729.801270	1.063504
215.865799	719.398926	755.658691	735.819824	45.286831
216.242355	716.649719	748.377014	737.380188	65.339539
216.618896	712.414490	747.485413	738.049011	73.093376
216.995407	712.637390	749.343018	731.584656	51.619511
217.371902	708.030579	760.934143	733.293518	47.752811
217.748367	712.860352	761.677246	724.674377	24.200691
218.124802	720.067688	753.726807	723.262695	9.492249
218.501236	725.937561	750.160339	723.857117	-8.588793
218.877609	718.432922	755.064270	728.018066	26.166506
219.253983	714.866455	758.779358	731.435974	37.732689
219.630295	714.940735	752.537903	729.206848	37.944649
220.006592	717.095520	750.754700	729.727051	37.527744
220.382889	718.804504	749.194336	724.228699	17.848715
220.759140	718.804443	749.120056	717.021240	-5.882128
221.135391	717.838562	749.565857	715.980957	-5.854911
221.511581	716.352539	755.584412	720.290527	10.037727
221.887772	714.643555	763.237549	722.445313	16.054983
222.263931	712.117371	765.318054	718.507324	12.011037
222.640060	713.603333	763.460449	716.872620	6.557313
223.016159	716.352539	762.123047	717.838623	3.246816
223.392212	728.166687	756.104492	729.504150	4.787289
223.768265	733.590759	757.070374	726.903503	-28.481115
224.144302	737.083008	764.500732	727.646545	-34.417381
224.520294	731.807434	773.491394	722.445374	-22.459623
224.896286	724.154297	774.531555	730.172852	11.946967
225.272217	719.250305	768.810242	733.888000	29.535339
225.648148	726.160461	761.528564	733.145020	19.748184
226.024048	731.064453	761.082703	734.185242	10.396304
226.399902	727.349304	765.986633	731.658875	11.153903
226.775772	717.987244	770.444885	733.665039	29.886581
227.151581	712.340149	774.382996	727.720886	24.790508
227.527374	722.593933	763.757629	729.281250	16.245667
227.903137	726.309082	763.534729	727.795166	3.992097
228.278870	730.321350	758.853699	738.717590	29.427092
228.654572	725.714661	757.887695	743.621643	55.658356
229.030273	726.011902	751.869202	748.228333	85.919373
229.405930	724.600159	751.794922	739.906433	56.283905
229.781555	717.838623	758.482239	737.380188	48.080280
230.157181	715.683838	760.934265	728.240967	27.750299
230.532761	711.745789	758.630798	733.516418	46.434093
230.908325	714.420654	756.996094	731.287354	39.616032
231.283859	719.844727	756.104492	731.361755	31.762558
231.659332	719.993347	760.562683	713.751953	-15.384511
232.034821	723.336975	754.246887	712.340149	-35.577023
232.410263	723.262695	752.686584	712.934570	-35.101154
232.785690	731.436035	751.572021	726.383301	-25.093056
233.161087	722.593994	756.401672	732.401855	29.010752
233.536469	711.745789	762.494446	733.665039	43.191784
233.911804	709.591003	764.426453	730.321472	37.804867
234.287140	719.324646	765.020813	719.844727	1.138127
234.662430	719.473206	764.575012	723.559875	9.060989
235.037704	719.324707	756.698914	729.578430	27.435293
235.412933	715.683777	756.624573	735.225403	47.731426
235.788162	717.541321	749.565918	734.185242	51.972305
236.163345	715.312317	757.887756	728.092468	30.017662
236.538513	708.550781	757.739075	730.841614	45.317352
236.913635	710.556946	759.596680	726.680664	32.878887
237.288742	709.888184	755.658630	727.275085	37.987179
237.663834	714.272034	758.407898	724.674500	23.569191
238.038879	710.408264	758.036377	723.559875	27.613127
238.413910	712.265869	758.185059	719.101807	14.886887
238.788910	713.083191	757.813477	717.987122	10.963334
239.163879	715.609558	762.568848	720.884949	11.233966
239.538834	711.522766	772.302551	729.801270	30.073326
239.913757	714.049133	779.435547	734.482422	31.250053
240.288651	719.547546	785.751282	733.516418	21.099825
240.663528	728.018066	783.967957	736.414307	15.006715
241.038361	719.919128	778.841125	732.327637	21.059212
241.413177	719.547546	769.330383	733.888000	28.806021
241.787979	716.129639	769.553284	735.819824	36.856686
242.162735	723.559875	775.720398	744.884766	40.883198
242.537476	715.535156	791.472595	746.370789	40.606628
242.912170	713.529053	799.274353	743.770203	35.268581
243.286865	709.739563	791.621155	732.253235	27.495401
243.661514	720.067627	781.664612	726.680603	10.735876
244.036148	723.708496	778.098145	725.194580	2.732292
244.410751	735.522644	779.361267	726.903503	-19.661066
244.785339	730.841553	774.605896	733.813660	6.791161
245.159882	726.680664	777.057861	733.293640	13.126924
245.534378	718.284424	779.881348	735.522644	27.985521
245.908890	720.290527	791.249695	732.476257	17.172876
246.283356	725.491760	786.865784	723.634216	-3.026596
246.657791	728.092285	798.011230	723.634277	-6.375966
247.032196	725.268860	804.326965	726.086243	1.033901
247.406586	724.897278	802.246399	729.429749	5.859757
247.780960	718.953125	801.280457	729.801270	13.176845
248.155289	713.974792	809.750977	729.281250	15.981486
248.529602	708.253479	819.484680	736.265625	25.183712
248.903870	720.885010	811.608643	733.739441	14.168779
249.278122	721.776672	802.692322	730.544434	10.835680
249.652344	723.485657	791.695496	727.646545	6.100130
250.026550	714.420715	798.977234	729.132629	17.398912
250.400711	718.210144	790.581055	729.652771	15.811086
250.774857	720.885010	795.559265	734.705322	18.507465
251.148987	720.513428	790.209473	727.720886	10.341273
251.523071	725.268860	802.989502	730.395752	6.596564
251.897125	726.606262	804.549866	722.148132	-5.719687
252.271164	726.457703	817.478577	724.302917	-2.367353
252.645187	715.535217	809.230957	719.175964	3.885712
253.019165	706.767517	813.094727	721.925110	14.255610
253.393112	711.745789	808.636536	727.497864	16.257565
253.767044	718.953125	809.825378	730.024231	12.183153
254.140930	723.114075	807.373352	731.064453	9.435612
254.514801	716.352539	796.227966	733.293640	21.209402
254.888657	714.792175	799.348694	742.804382	33.128384
255.262466	719.993408	802.989563	744.810486	29.901480
255.636276	719.398987	809.453857	741.243958	24.257401
256.010010	724.897278	819.559082	729.281250	4.631195
256.383759	723.336975	817.181335	727.943665	4.908861
256.757446	732.401917	832.339111	730.692871	-1.710119
257.131134	731.138733	826.320557	732.401855	1.327063
257.504791	722.222473	834.939697	731.436035	8.174049
257.878418	715.832458	836.945801	729.578430	11.349676
258.252014	711.448547	849.280090	728.984070	12.722430
258.625580	718.730225	855.075684	728.463867	7.138956
258.999115	718.284424	861.317139	730.098572	8.259752
259.372650	718.507324	866.964172	744.810547	17.717756
259.746124	718.507324	891.558350	744.067444	14.770279
260.119598	715.535156	914.443542	745.107727	14.867433
260.493042	714.123474	934.208008	737.603210	10.668509
260.866425	711.076965	933.465027	734.928223	10.725062
261.239838	716.129639	921.130859	726.606384	5.110577
261.613159	719.696228	905.452942	726.977844	3.919975
261.986511	724.302917	895.942322	726.754883	1.428556
262.359802	720.439209	886.728699	726.680664	3.753367
262.733063	719.919006	877.589417	727.795105	4.995293
263.106293	710.705505	875.806152	725.788879	9.135866
263.479523	710.705566	876.177673	734.185242	14.189507
263.852692	715.832458	882.121887	739.832214	14.432521
264.225861	721.999573	877.960938	743.918884	14.054321
264.598969	722.073792	878.332458	744.364685	14.265381
264.972076	712.785950	875.806152	730.767273	11.030120
265.345154	714.643555	880.041443	736.562927	13.252510
265.718201	715.386536	886.059998	730.321472	8.750591
266.091217	719.101746	898.394226	732.179016	7.293820
266.464203	719.027405	909.911133	722.148132	1.634884
266.837158	720.959290	918.678772	727.200684	3.156692
267.210114	721.330811	930.047119	729.429749	3.880357
267.583038	722.371094	933.167786	734.036560	5.533989
267.955902	723.114075	934.876892	733.887939	5.087704
268.328766	719.250305	925.589050	738.791931	9.470653
268.701569	713.826172	931.607605	734.928223	9.689554
269.074371	717.318420	934.208069	727.869446	4.864697
269.447144	720.290588	953.378235	723.114075	1.211341
269.819885	725.789001	954.567078	728.686768	1.266628
270.192596	725.417480	978.566833	736.711426	4.461376
270.565277	728.538147	986.071289	731.510315	1.154091
270.937927	733.590759	1010.814148	725.120300	-3.055463
271.310577	725.863281	1025.451782	726.160461	0.099196
271.683136	723.411316	1054.801392	726.531982	0.941690
272.055725	712.711731	1071.148071	733.145020	5.700675
272.428284	717.244202	1079.915649	729.875671	3.482896
272.800812	713.603333	1073.154175	728.761047	4.215736
273.173279	713.826172	1068.621704	718.061523	1.193744
273.545776	714.494934	1064.980835	729.281189	4.218787
273.918152	716.055237	1064.163452	733.665039	5.058715
274.290558	716.352539	1056.659058	745.924988	8.689945
274.662964	715.015137	1049.154419	736.191345	6.337539
275.035278	721.999512	1049.674561	744.959045	7.006800
275.407593	723.337097	1056.881958	742.878662	5.858752
275.779907	723.188477	1070.702271	746.668030	6.756438
276.152161	720.290588	1076.497803	740.500977	5.673773
276.524384	725.937561	1088.683472	743.101563	4.731687
276.896606	727.126465	1102.429321	740.129395	3.464650
277.268799	723.411316	1116.918335	739.609375	4.116333
277.640930	712.860291	1125.463257	732.179016	4.682158
278.013031	711.671387	1130.590210	723.188416	2.749227
278.385162	710.036804	1136.757324	726.754883	3.917805
278.757233	708.402161	1138.837891	728.166687	4.591749
279.129272	709.516663	1138.317749	732.401917	5.337033
279.501282	710.556946	1136.831665	719.621826	2.126535
279.873230	713.231873	1147.531250	720.885010	1.762180
280.245178	710.854187	1163.060547	727.869446	3.762720
280.617126	720.810730	1195.753784	733.962341	2.769092
280.988983	728.612488	1225.400513	732.253235	0.732857
281.360870	729.429871	1246.279541	729.281189	-0.028767
281.732697	717.095520	1260.174194	728.538086	2.106981
282.104492	715.609558	1279.938599	734.556702	3.357464
282.476288	721.925293	1306.539063	740.500916	3.177418
282.848053	721.999573	1327.938232	736.488586	2.391168
283.219757	718.804504	1330.687500	732.922058	2.307231
283.591461	708.699402	1322.885620	726.086243	2.830874
283.963135	710.259766	1312.111694	735.894104	4.259243
284.334747	712.637390	1313.151978	733.442200	3.464497
284.706360	716.946960	1336.334351	736.414307	3.143000
285.077942	720.439209	1372.817017	725.714661	0.808650
285.449524	719.696228	1415.689819	727.943787	1.185005
285.821014	720.439148	1436.494507	724.451477	0.560338
286.192535	721.776611	1461.757324	725.937561	0.562305
286.563995	716.278137	1475.429077	720.067688	0.499183
286.935425	716.278137	1499.577515	721.256531	0.635567
287.306824	714.272034	1509.534180	718.655945	0.551254
287.678223	721.330811	1499.429077	730.321472	1.155466
288.049561	719.176025	1473.422974	725.566101	0.847213
288.420898	719.027405	1444.519165	733.293640	1.966423
288.792145	724.377136	1444.593628	722.891113	-0.206330
289.163452	729.504089	1457.373535	731.436035	0.265425
289.534668	728.983948	1481.967773	730.321472	0.177630
289.905914	722.073792	1509.756958	735.225403	1.669658
290.277039	721.107910	1545.199341	732.104736	1.334418
290.648193	726.754883	1577.223755	731.064453	0.506729
291.019318	729.355469	1602.040894	733.219238	0.442745
291.390381	728.538269	1614.077759	735.002502	0.729977
291.761475	723.262695	1609.619751	738.420410	1.710114
292.132507	724.154297	1597.137085	738.346130	1.625672
292.503510	722.965515	1580.344604	737.008606	1.637909
292.874481	730.618652	1574.251587	739.683594	1.074512
293.245422	724.005676	1578.486938	733.888000	1.156529
293.616364	722.445374	1605.310181	733.962219	1.304486
293.987213	711.002747	1643.799194	729.727051	2.007330
294.358093	721.107910	1689.718140	735.374023	1.472844
294.728943	721.850891	1737.197632	737.603210	1.551423
295.099731	729.949951	1782.373657	736.117004	0.585986
295.470490	722.816895	1808.602539	729.429871	0.609050
295.841248	721.479431	1826.880859	733.590759	1.095650
296.211975	712.191589	1846.125366	735.968506	2.096852
296.582642	713.454773	1891.078613	746.965271	2.845603
296.953308	708.327820	1955.870483	740.500916	2.578917
297.323883	710.705566	2002.383911	740.798096	2.329723
297.694519	707.138977	2029.430176	734.482422	2.067884
298.065063	708.847961	2017.096069	733.070618	1.851534
298.435608	715.312317	2000.377930	737.603088	1.734602
298.806122	729.504150	1950.817993	743.324402	1.131589
299.176575	737.603088	1900.737915	742.878601	0.453560
299.547028	736.637207	1858.831177	738.197510	0.139040
299.917450	725.789001	1840.478516	738.569092	1.146516
300.287872	727.423645	1834.236938	745.033386	1.591031
300.658234	723.262695	1829.333008	741.466797	1.645836
301.028564	724.748779	1830.076172	733.813660	0.820108
301.398865	721.850891	1829.407349	733.516418	1.053267
301.769135	725.491760	1826.435181	740.723877	1.383551
302.139374	723.411316	1837.877930	739.683594	1.460096
302.509583	719.473206	1846.348267	731.287354	1.048399
302.879791	721.702332	1837.654907	731.064453	0.838935
303.249939	719.101746	1816.701538	733.665039	1.326831
303.620087	718.804504	1795.450806	738.049011	1.787449
303.990173	711.820068	1799.686157	737.231628	2.335909
304.360260	716.575500	1806.299194	739.089111	2.065993
304.730286	717.764343	1815.141235	731.435974	1.245846
305.100281	719.324707	1814.546509	729.801270	0.956570
305.470276	715.312256	1821.902710	731.807434	1.490631
305.840179	709.516785	1836.688965	735.596924	2.313767
306.210144	710.482666	1848.503296	736.785828	2.311308
306.579987	714.940857	1857.716797	730.395752	1.352399
306.949890	723.559875	1866.187134	736.042725	1.092469
307.319702	727.795166	1883.945679	735.002502	0.623391
307.689484	725.566101	1911.660278	741.243958	1.321805
308.059265	718.358704	1950.297729	735.671326	1.405315
308.429016	710.705505	1994.805054	730.172852	1.516031
308.798737	707.956299	2037.603516	732.030457	1.810567
309.168396	713.751953	2069.033691	733.962219	1.491223
309.538055	718.804504	2103.881592	737.380188	1.341130
309.907684	712.934570	2123.869141	732.699158	1.400815
310.277313	706.693176	2158.642822	722.445313	1.084895
310.646851	699.634460	2176.252441	723.634216	1.625319
311.016388	706.544617	2189.552490	725.268860	1.262586
311.385895	709.962585	2191.781738	738.717590	1.940521
311.755371	711.374268	2193.639404	737.751709	1.779536
312.124817	714.049133	2208.722900	737.677429	1.580833
312.494232	717.318542	2197.354492	730.841553	0.913695
312.863617	720.736389	2195.719971	731.658875	0.740516
313.232971	716.724060	2169.490967	728.909668	0.838786
313.602295	715.683777	2162.803711	735.076843	1.340115
313.971619	715.980957	2159.979980	741.392517	1.759804
314.340820	715.163635	2174.692139	742.061279	1.842899
314.710083	719.101746	2200.326416	740.723816	1.459743
315.079285	717.541321	2236.883545	734.779602	1.134588
315.448486	718.581604	2265.564209	740.055176	1.388094
315.817596	716.501160	2266.530029	741.169617	1.591484
316.186707	716.724121	2231.682373	742.432800	1.696989
316.555786	716.724060	2196.982910	735.076843	1.239836
316.924866	711.820068	2163.695313	733.739319	1.509720
317.293884	716.352539	2145.713867	731.807556	1.081253
317.662872	716.278137	2137.466553	737.305908	1.479591
318.031830	719.844727	2150.097900	743.027283	1.620871
318.400757	717.987122	2167.781982	739.906555	1.511899
318.769684	722.742493	2176.921143	732.847717	0.694909
319.138550	723.485535	2190.369873	725.789001	0.157031
319.507416	722.296692	2205.453369	726.606262	0.290567
319.876190	722.742493	2226.035156	733.962219	0.746343
320.244995	724.748718	2237.403564	732.624817	0.520680
320.613770	724.154297	2217.638916	732.922058	0.587067
320.982483	724.823059	2204.413086	731.584534	0.456983
321.351166	725.714661	2166.667236	736.934326	0.778628
321.719818	720.364929	2159.534424	742.284180	1.523049
322.088440	715.683777	2157.825195	742.730042	1.875424
322.457062	705.429993	2177.961182	741.318298	2.437185
322.825623	714.643555	2211.917725	735.745544	1.409360
323.194183	719.398926	2252.709961	737.231628	1.163019
323.562653	722.742493	2309.328369	737.454529	0.927276
323.931183	720.587830	2376.275391	732.847656	0.740467
324.299591	714.569336	2445.451172	736.637207	1.274950
324.668060	719.844788	2502.218506	739.163513	1.083876
325.036407	720.513489	2542.862305	748.376953	1.528986
