Jaz Data File
++++++++++++++++++++++++++++++++++++
Date: Fri Jun 04 16:57:55 2021
User: jaz
Dark Spectrum Present: Yes
Reference Spectrum Present: Yes
Processed Spectrum Present: Yes
Spectrometers: JAZA3586
Integration Time (usec): 24100 (JAZA3586)
Spectra Averaged: 10 (JAZA3586)
Boxcar Smoothing: 1 (JAZA3586)
Correct for Electrical Dark: No (JAZA3586)
Strobe/Lamp Enabled: Yes (JAZA3586)
Correct for Detector Non-linearity: No (JAZA3586)
Correct for Stray Light: No (JAZA3586)
Number of Pixels in Processed Spectrum: 2048
>>>>>Begin Processed Spectral Data<<<<<
W	D	R	S	P
191.335022	0.000000	0.000000	0.000000	0.000000
191.713211	231.750168	230.487076	228.926697	223.536453
192.091385	464.689209	467.364166	462.088623	-97.219719
192.469528	703.795410	704.909973	699.783020	-359.996704
192.847641	708.996582	712.340149	715.312317	188.892136
193.225739	713.974854	721.850891	728.909729	189.624222
193.603790	717.392822	729.429871	740.723816	193.826538
193.981842	725.045959	740.055176	742.655762	117.326591
194.359863	737.974609	736.934387	739.832214	-178.577713
194.737854	747.708252	733.293640	737.677429	69.587883
195.115829	752.315125	732.699219	731.287415	107.197243
195.493774	749.788757	734.259521	737.677429	77.990494
195.871704	748.377014	739.906494	736.117126	144.735947
196.249603	748.005554	740.203674	744.736145	41.905403
196.627457	749.714417	744.290344	743.250183	119.176758
197.005310	746.816711	745.924988	748.451355	-183.312805
197.383133	747.931213	747.782532	747.262512	449.753693
197.760910	747.039551	745.850769	747.559631	-43.749039
198.138687	748.674255	741.764099	737.454529	162.365738
198.516449	749.268616	737.603088	732.847717	140.764297
198.894180	746.965149	734.482422	730.841614	129.166763
199.271866	744.884766	737.900391	739.163513	81.915024
199.649536	743.250183	736.934387	736.637207	104.705345
200.027191	745.627747	734.482422	731.584656	125.999832
200.404816	744.884766	732.179016	728.315247	130.409622
200.782410	740.872375	747.708313	728.166687	-185.866074
201.159988	739.312073	758.333557	734.408020	-25.781651
201.537537	734.556702	767.621399	735.076843	1.573103
201.915070	731.213074	765.095032	748.376953	50.657875
202.292557	724.005676	764.723572	746.296570	54.744709
202.670029	717.987305	765.466614	743.918762	54.616333
203.047485	717.021301	764.426331	733.962219	35.736542
203.424911	717.169922	765.243713	727.572266	21.638285
203.802292	721.628113	761.157043	727.275085	14.285670
204.179688	721.256531	755.510071	734.556641	38.828423
204.557037	730.915833	760.414063	735.596924	15.869059
204.934357	729.875671	756.847473	732.699219	10.468516
205.311661	731.584656	763.609131	733.219238	5.104167
205.688934	719.770447	756.104492	737.751709	49.488743
206.066177	718.210144	767.027039	737.380188	39.269283
206.443390	713.083191	763.311829	731.138855	35.946953
206.820587	712.414490	766.506836	728.761047	30.219725
207.197769	702.606445	753.206726	736.488586	66.960381
207.574921	699.634338	752.092102	738.940613	74.929375
207.952042	708.327820	747.039551	740.055115	81.957832
208.329147	725.120300	753.801086	737.231628	42.228020
208.706223	742.061218	765.318054	743.844482	7.667699
209.083267	738.271790	769.256042	742.507019	13.668974
209.460297	734.853943	770.221985	742.209900	20.798315
209.837280	722.891174	754.692688	731.510254	27.102734
210.214264	717.764343	755.064209	734.185242	44.024014
210.591217	715.906738	754.841309	735.596985	50.572659
210.968124	721.107971	762.345886	741.541199	49.549614
211.345016	727.126465	763.386169	739.014832	32.786716
211.721893	730.395813	762.866028	737.825989	22.883051
212.098724	733.293640	761.751465	741.838379	30.025972
212.475555	730.098572	760.488342	746.296570	53.300823
212.852356	726.457764	758.927917	743.398682	52.173817
213.229126	720.439270	756.327332	737.231628	46.790932
213.605865	718.730225	755.658691	735.299744	44.869232
213.982590	713.677734	755.212891	737.454529	57.244987
214.359283	703.349609	758.482178	739.460632	65.498535
214.735931	709.219482	760.859863	737.528748	54.820015
215.112579	717.095642	763.014648	733.442139	35.598541
215.489197	729.504150	757.441895	728.909668	-2.127883
215.865799	719.398926	755.658691	732.253357	35.450951
216.242355	716.649719	748.377014	731.807556	47.775383
216.618896	712.414490	747.485413	726.160461	39.194782
216.995407	712.637390	749.343018	714.866516	6.072981
217.371902	708.030579	760.934143	720.959290	24.438261
217.748367	712.860352	761.677246	721.999512	18.721306
218.124802	720.067688	753.726807	725.714661	16.776947
218.501236	725.937561	750.160339	720.141907	-23.926464
218.877609	718.432922	755.064270	715.386658	-8.316005
219.253983	714.866455	758.779358	719.770508	11.167681
219.630295	714.940735	752.537903	719.993347	13.438811
220.006592	717.095520	750.754700	730.098633	38.631699
220.382889	718.804504	749.194336	729.578430	35.452404
220.759140	718.804443	749.120056	733.293640	47.794502
221.135391	717.838562	749.565857	727.497986	30.445154
221.511581	716.352539	755.584412	728.240967	30.302982
221.887772	714.643555	763.237549	726.531982	24.464809
222.263931	712.117371	765.318054	733.739319	40.642239
222.640060	713.603333	763.460449	731.658875	36.214573
223.016159	716.352539	762.123047	733.367859	37.175293
223.392212	728.166687	756.104492	724.674377	-12.500300
223.768265	733.590759	757.070374	725.194580	-35.759441
224.144302	737.083008	764.500732	715.386658	-79.132568
224.520294	731.807434	773.491394	726.383484	-13.012080
224.896286	724.154297	774.531555	728.389587	8.407147
225.272217	719.250305	768.810242	741.243896	44.377762
225.648148	726.160461	761.528564	738.420410	34.663857
226.024048	731.064453	761.082703	738.197571	23.762604
226.399902	727.349304	765.986633	735.448303	20.961592
226.775772	717.987244	770.444885	734.482422	31.444757
227.151581	712.340149	774.382996	736.488586	38.922195
227.527374	722.593933	763.757629	737.454529	36.101219
227.903137	726.309082	763.534729	739.906494	36.527000
228.278870	730.321350	758.853699	731.807434	5.208418
228.654572	725.714661	757.887695	734.705261	27.944521
229.030273	726.011902	751.869202	732.922058	26.724199
229.405930	724.600159	751.794922	733.219238	31.693895
229.781555	717.838623	758.482239	725.417480	18.647104
230.157181	715.683838	760.934265	718.358704	5.911250
230.532761	711.745789	758.630798	727.646545	33.914371
230.908325	714.420654	756.996094	733.219238	44.153587
231.283859	719.844727	756.104492	741.615479	60.041073
231.659332	719.993347	760.562683	740.277893	49.999699
232.034821	723.336975	754.246887	741.318176	58.172928
232.410263	723.262695	752.686584	731.435974	27.777697
232.785690	731.436035	751.572021	730.915833	-2.583447
233.161087	722.593994	756.401672	720.959290	-4.835306
233.536469	711.745789	762.494446	726.309082	28.696903
233.911804	709.591003	764.426453	721.776672	22.222246
234.287140	719.324646	765.020813	728.315247	19.674736
234.662430	719.473206	764.575012	724.080017	10.214251
235.037704	719.324707	756.698914	719.919006	1.590132
235.412933	715.683777	756.624573	721.107910	13.248725
235.788162	717.541321	749.565918	730.395752	40.139244
236.163345	715.312317	757.887756	740.426575	58.987667
236.538513	708.550781	757.739075	734.036621	51.812817
236.913635	710.556946	759.596680	728.018066	35.606068
237.288742	709.888184	755.658630	733.293640	51.136612
237.663834	714.272034	758.407898	738.420410	54.713726
238.038879	710.408264	758.036377	740.352356	62.870625
238.413910	712.265869	758.185059	733.516418	46.278145
238.788910	713.083191	757.813477	729.429871	36.544994
239.163879	715.609558	762.568848	731.213135	33.227882
239.538834	711.522766	772.302551	729.875671	30.195740
239.913757	714.049133	779.435547	731.881836	27.272795
240.288651	719.547546	785.751282	723.411316	5.836181
240.663528	728.018066	783.967957	718.135742	-17.662813
241.038361	719.919128	778.841125	720.513489	1.008724
241.413177	719.547546	769.330383	722.668274	6.268682
241.787979	716.129639	769.553284	731.064453	27.955439
242.162735	723.559875	775.720398	727.869446	8.262131
242.537476	715.535156	791.472595	732.922058	22.896351
242.912170	713.529053	799.274353	736.785828	27.123091
243.286865	709.739563	791.621155	744.438965	42.377537
243.661514	720.067627	781.664612	749.119934	47.165146
244.036148	723.708496	778.098145	741.392517	32.513580
244.410751	735.522644	779.361267	733.516418	-4.576388
244.785339	730.841553	774.605896	729.355530	-3.395511
245.159882	726.680664	777.057861	734.036621	14.601759
245.534378	718.284424	779.881348	730.172852	19.300360
245.908890	720.290527	791.249695	732.030457	16.544626
246.283356	725.491760	786.865784	726.531982	1.694890
246.657791	728.092285	798.011230	736.488586	12.008621
247.032196	725.268860	804.326965	734.928223	12.218055
247.406586	724.897278	802.246399	738.643372	17.771494
247.780960	718.953125	801.280457	732.922058	16.967552
248.155289	713.974792	809.750977	732.104675	18.929426
248.529602	708.253479	819.484680	726.829163	16.700066
248.903870	720.885010	811.608643	723.485596	2.866492
249.278122	721.776672	802.692322	724.897400	3.856766
249.652344	723.485657	791.695496	730.172852	9.803857
250.026550	714.420715	798.977234	736.785828	26.449898
250.400711	718.210144	790.581055	737.900208	27.207151
250.774857	720.885010	795.559265	735.745544	19.900478
251.148987	720.513428	790.209473	733.144958	18.123741
251.523071	725.268860	802.989502	732.253357	8.986670
251.897125	726.606262	804.549866	731.956055	6.863671
252.271164	726.457703	817.478577	734.185242	8.489854
252.645187	715.535217	809.230957	734.259460	19.984093
253.019165	706.767517	813.094727	730.098572	21.942694
253.393112	711.745789	808.636536	734.705322	23.696312
253.767044	718.953125	809.825378	728.463867	10.466058
254.140930	723.114075	807.373352	737.825989	17.460289
254.514801	716.352539	796.227966	736.339905	25.023172
254.888657	714.792175	799.348694	744.067383	34.622059
255.262466	719.993408	802.989563	739.832214	23.903284
255.636276	719.398987	809.453857	736.934387	19.471907
256.010010	724.897278	819.559082	725.863281	1.020479
256.383759	723.336975	817.181335	725.491760	2.296126
256.757446	732.401917	832.339111	725.120300	-7.286192
257.131134	731.138733	826.320557	734.259521	3.278765
257.504791	722.222473	834.939697	732.253357	8.899158
257.878418	715.832458	836.945801	731.807434	13.190104
258.252014	711.448547	849.280090	732.401855	15.202114
258.625580	718.730225	855.075684	737.083008	13.460502
258.999115	718.284424	861.317139	737.751709	13.610373
259.372650	718.507324	866.964172	733.367859	10.010003
259.746124	718.507324	891.558350	729.949951	6.612285
260.119598	715.535156	914.443542	733.888000	9.226783
260.493042	714.123474	934.208008	741.541199	12.457815
260.866425	711.076965	933.465027	741.392578	13.631852
261.239838	716.129639	921.130859	735.671204	9.532413
261.613159	719.696228	905.452942	724.525818	2.599954
261.986511	724.302917	895.942322	724.005676	-0.173178
262.359802	720.439209	886.728699	722.445374	1.206429
262.733063	719.919006	877.589417	728.835449	5.655115
263.106293	710.705505	875.806152	726.086182	9.315940
263.479523	710.705566	876.177673	730.618652	12.034104
263.852692	715.832458	882.121887	726.383484	6.344976
264.225861	721.999573	877.960938	725.343201	2.143882
264.598969	722.073792	878.332458	725.640381	2.282490
264.972076	712.785950	875.806152	727.795166	9.206967
265.345154	714.643555	880.041443	731.658936	10.287544
265.718201	715.386536	886.059998	725.640381	6.007873
266.091217	719.101746	898.394226	738.494812	10.816442
266.464203	719.027405	909.911133	741.095398	11.560961
266.837158	720.959290	918.678772	745.330566	12.326189
267.210114	721.330811	930.047119	739.014832	8.472754
267.583038	722.371094	933.167786	737.231628	7.049700
267.955902	723.114075	934.876892	740.278015	8.105267
268.328766	719.250305	925.589050	742.135559	11.091108
268.701569	713.826172	931.607605	743.027161	13.408392
269.074371	717.318420	934.208069	736.042786	8.633130
269.447144	720.290588	953.378235	732.179016	5.100411
269.819885	725.789001	954.567078	725.417480	-0.162394
270.192596	725.417480	978.566833	731.361633	2.348081
270.565277	728.538147	986.071289	729.875671	0.519360
270.937927	733.590759	1010.814148	735.596924	0.723664
271.310577	725.863281	1025.451782	733.739319	2.628952
271.683136	723.411316	1054.801392	733.442139	3.026893
272.055725	712.711731	1071.148071	732.699158	5.576283
272.428284	717.244202	1079.915649	730.470032	3.646780
272.800812	713.603333	1073.154175	727.646545	3.905766
273.173279	713.826172	1068.621704	727.126404	3.748703
273.545776	714.494934	1064.980835	731.510254	4.854780
273.918152	716.055237	1064.163452	737.974609	6.296712
274.290558	716.352539	1056.659058	741.763977	7.467220
274.662964	715.015137	1049.154419	740.500916	7.627292
275.035278	721.999512	1049.674561	735.374023	4.081639
275.407593	723.337097	1056.881958	735.374023	3.608788
275.779907	723.188477	1070.702271	734.259460	3.185768
276.152161	720.290588	1076.497803	732.996338	3.566955
276.524384	725.937561	1088.683472	730.915833	1.372385
276.896606	727.126465	1102.429321	734.259521	1.900613
277.268799	723.411316	1116.918335	737.677307	3.625346
277.640930	712.860291	1125.463257	740.203613	6.627030
278.013031	711.671387	1130.590210	735.522644	5.693527
278.385162	710.036804	1136.757324	727.349304	4.057105
278.757233	708.402161	1138.837891	719.547546	2.589326
279.129272	709.516663	1138.317749	721.925232	2.893782
279.501282	710.556946	1136.831665	727.423645	3.956767
279.873230	713.231873	1147.531250	734.853943	4.978610
280.245178	710.854187	1163.060547	737.157288	5.816615
280.617126	720.810730	1195.753784	737.751770	3.566962
280.988983	728.612488	1225.400513	735.671204	1.420871
281.360870	729.429871	1246.279541	735.968445	1.265082
281.732697	717.095520	1260.174194	737.380188	3.735125
282.104492	715.609558	1279.938599	741.689758	4.621453
282.476288	721.925293	1306.539063	736.488586	2.491096
282.848053	721.999573	1327.938232	739.980774	2.967495
283.219757	718.804504	1330.687500	736.637207	2.914397
283.591461	708.699402	1322.885620	739.014893	4.935879
283.963135	710.259766	1312.111694	735.076843	4.123452
284.334747	712.637390	1313.151978	738.717590	4.342975
284.706360	716.946960	1336.334351	735.448242	2.987029
285.077942	720.439209	1372.817017	742.804260	3.428236
285.449524	719.696228	1415.689819	734.631042	2.145826
285.821014	720.439148	1436.494507	741.689758	2.967733
286.192535	721.776611	1461.757324	738.346130	2.239182
286.563995	716.278137	1475.429077	735.968445	2.593728
286.935425	716.278137	1499.577515	729.429871	1.679017
287.306824	714.272034	1509.534180	721.033630	0.850235
287.678223	721.330811	1499.429077	726.903503	0.716194
288.049561	719.176025	1473.422974	725.566101	0.847213
288.420898	719.027405	1444.519165	733.219238	1.956167
288.792145	724.377136	1444.593628	734.482422	1.403090
289.163452	729.504089	1457.373535	748.154114	2.562276
289.534668	728.983948	1481.967773	742.804260	1.835406
289.905914	722.073792	1509.756958	740.352356	2.320548
290.277039	721.107910	1545.199341	726.531982	0.658188
290.648193	726.754883	1577.223755	727.795105	0.122312
291.019318	729.355469	1602.040894	737.082947	0.885483
291.390381	728.538269	1614.077759	734.630920	0.688016
291.761475	723.262695	1609.619751	736.785828	1.525698
292.132507	724.154297	1597.137085	729.281189	0.587284
292.503510	722.965515	1580.344604	734.853821	1.386587
292.874481	730.618652	1574.251587	739.014832	0.995241
293.245422	724.005676	1578.486938	746.296570	2.608705
293.616364	722.445374	1605.310181	747.633972	2.853053
293.987213	711.002747	1643.799194	737.974609	2.891506
294.358093	721.107910	1689.718140	728.909668	0.805459
294.728943	721.850891	1737.197632	727.943787	0.600080
295.099731	729.949951	1782.373657	730.247131	0.028238
295.470490	722.816895	1808.602539	736.711426	1.279675
295.841248	721.479431	1826.880859	737.900330	1.485515
296.211975	712.191589	1846.125366	734.556641	1.972342
296.582642	713.454773	1891.078613	731.213074	1.507977
296.953308	708.327820	1955.870483	735.299744	2.162004
297.323883	710.705566	2002.383911	742.878601	2.490793
297.694519	707.138977	2029.430176	737.231628	2.275796
298.065063	708.847961	2017.096069	723.782776	1.141589
298.435608	715.312317	2000.377930	713.900574	-0.109858
298.806122	729.504150	1950.817993	717.095520	-1.016007
299.176575	737.603088	1900.737915	728.686829	-0.766572
299.547028	736.637207	1858.831177	733.813660	-0.251610
299.917450	725.789001	1840.478516	740.500916	1.319822
300.287872	727.423645	1834.236938	735.671204	0.745163
300.658234	723.262695	1829.333008	743.398682	1.820498
301.028564	724.748779	1830.076172	739.163391	1.304103
301.398865	721.850891	1829.407349	743.621643	1.965656
301.769135	725.491760	1826.435181	733.962219	0.769382
302.139374	723.411316	1837.877930	732.179016	0.786717
302.509583	719.473206	1846.348267	733.813660	1.272586
302.879791	721.702332	1837.654907	735.225403	1.211796
303.249939	719.101746	1816.701538	742.952881	2.173027
303.620087	718.804504	1795.450806	737.157227	1.704620
303.990173	711.820068	1799.686157	739.014832	2.499826
304.360260	716.575500	1806.299194	728.612488	1.104591
304.730286	717.764343	1815.141235	731.956055	1.293239
305.100281	719.324707	1814.546509	735.894104	1.512880
305.470276	715.312256	1821.902710	740.055115	2.235955
305.840179	709.516785	1836.688965	736.488525	2.392868
306.210144	710.482666	1848.503296	732.253235	1.913021
306.579987	714.940857	1857.716797	736.414246	1.879055
306.949890	723.559875	1866.187134	742.135559	1.625699
307.319702	727.795166	1883.945679	742.804382	1.298206
307.689484	725.566101	1911.660278	743.250183	1.490951
308.059265	718.358704	1950.297729	737.603088	1.562122
308.429016	710.705505	1994.805054	737.974609	2.123597
308.798737	707.956299	2037.603516	732.624817	1.855268
309.168396	713.751953	2069.033691	733.293518	1.441882
309.538055	718.804504	2103.881592	734.408020	1.126545
309.907684	712.934570	2123.869141	734.482361	1.527200
310.277313	706.693176	2158.642822	741.169617	2.374493
310.646851	699.634460	2176.252441	748.525635	3.311024
311.016388	706.544617	2189.552490	747.039551	2.730595
311.385895	709.962585	2191.781738	743.547363	2.266456
311.755371	711.374268	2193.639404	738.791931	1.849714
312.124817	714.049133	2208.722900	741.615479	1.844305
312.494232	717.318542	2197.354492	734.036621	1.129573
312.863617	720.736389	2195.719971	730.395752	0.654879
313.232971	716.724060	2169.490967	728.761047	0.828556
313.602295	715.683777	2162.803711	730.618652	1.032041
313.971619	715.980957	2159.979980	730.544373	1.008547
314.340820	715.163635	2174.692139	735.374084	1.384724
314.710083	719.101746	2200.326416	736.562927	1.178834
315.079285	717.541321	2236.883545	738.123230	1.354659
315.448486	718.581604	2265.564209	735.745544	1.109511
315.817596	716.501160	2266.530029	736.562805	1.294276
316.186707	716.724121	2231.682373	735.745605	1.255578
316.555786	716.724060	2196.982910	739.386414	1.530972
316.924866	711.820068	2163.695313	743.027161	2.149433
317.293884	716.352539	2145.713867	741.987000	1.793421
317.662872	716.278137	2137.466553	741.987000	1.808969
318.031830	719.844727	2150.097900	746.742371	1.880621
318.400757	717.987122	2167.781982	748.971436	2.137151
318.769684	722.742493	2176.921143	749.491516	1.839459
319.138550	723.485535	2190.369873	751.720642	1.924835
319.507416	722.296692	2205.453369	751.571960	1.973849
319.876190	722.742493	2226.035156	746.965271	1.611315
320.244995	724.748718	2237.403564	737.157227	0.820313
320.613770	724.154297	2217.638916	737.603027	0.900493
320.982483	724.823059	2204.413086	734.259460	0.637771
321.351166	725.714661	2166.667236	730.915833	0.360954
321.719818	720.364929	2159.534424	725.194519	0.335582
322.088440	715.683777	2157.825195	724.154297	0.587357
322.457062	705.429993	2177.961182	733.070618	1.877082
322.825623	714.643555	2211.917725	740.575195	1.731923
323.194183	719.398926	2252.709961	748.525574	1.899592
323.562653	722.742493	2309.328369	743.695984	1.320665
323.931183	720.587830	2376.275391	739.386414	1.135394
324.299591	714.569336	2445.451172	739.014832	1.412315
324.668060	719.844788	2502.218506	742.581360	1.275634
325.036407	720.513489	2542.862305	742.655579	1.215030
