Jaz Data File
++++++++++++++++++++++++++++++++++++
Date: Fri Jun 04 17:02:21 2021
User: jaz
Dark Spectrum Present: Yes
Reference Spectrum Present: Yes
Processed Spectrum Present: Yes
Spectrometers: JAZA3586
Integration Time (usec): 121000 (JAZA3586)
Spectra Averaged: 10 (JAZA3586)
Boxcar Smoothing: 1 (JAZA3586)
Correct for Electrical Dark: No (JAZA3586)
Strobe/Lamp Enabled: Yes (JAZA3586)
Correct for Detector Non-linearity: No (JAZA3586)
Correct for Stray Light: No (JAZA3586)
Number of Pixels in Processed Spectrum: 2048
>>>>>Begin Processed Spectral Data<<<<<
W	D	R	S	P
191.335022	0.000000	0.000000	0.000000	0.000000
191.713211	225.805969	227.812134	223.576904	-111.110771
192.091385	456.738800	461.791412	455.698608	-20.587206
192.469528	686.482849	693.913086	688.934814	32.999828
192.847641	699.188538	708.030579	700.897461	19.327250
193.225739	716.501160	719.696106	713.528992	-93.027168
193.603790	733.145020	731.584656	720.290527	823.813782
193.981842	736.117004	733.962341	729.206848	320.707031
194.359863	734.779602	737.157227	729.949890	-203.131821
194.737854	737.380188	747.931152	739.312012	18.309452
195.115829	753.281067	748.154114	737.528809	307.244049
195.493774	759.596680	749.268616	737.825989	210.791595
195.871704	762.791748	744.810547	732.922058	166.116211
196.249603	761.082825	753.726807	737.900330	315.150055
196.627457	756.178772	751.051941	743.918884	239.131882
197.005310	760.191162	749.640137	742.878601	164.084152
197.383133	755.361511	742.358459	747.188171	62.857090
197.760910	755.955872	743.918762	743.844543	100.616585
198.138687	748.376953	747.188171	747.336731	87.503212
198.516449	743.324402	750.383240	736.414307	-97.892815
198.894180	742.729980	741.764099	728.761047	1446.236938
199.271866	743.101563	731.138855	728.240967	124.224350
199.649536	742.878601	726.606262	729.058289	84.931320
200.027191	743.324402	733.293518	728.612488	146.666183
200.404816	737.603088	736.191406	724.302979	942.146240
200.782410	740.649597	748.525635	733.219238	-94.341331
201.159988	736.934387	759.225281	746.147949	41.333302
201.537537	738.197571	773.937195	757.367676	53.638241
201.915070	729.058289	768.513000	757.219055	71.374916
202.292557	726.606262	768.587341	760.562683	80.885063
202.670029	726.531982	763.609070	755.658691	78.557167
203.047485	732.104675	771.187988	757.516174	65.018791
203.424911	730.692932	768.215820	751.349121	55.049572
203.802292	724.600098	763.386169	751.200500	68.582359
204.179688	724.377197	762.420227	752.240723	73.242126
204.557037	733.219238	762.568848	747.411072	48.354420
204.934357	733.070618	769.404602	748.228455	41.718071
205.311661	728.612488	767.175598	740.575256	31.021275
205.688934	716.575439	765.540833	743.101563	54.173206
206.066177	720.216309	764.575012	742.209900	49.581230
206.443390	713.900574	759.225281	737.751709	52.622810
206.820587	721.850891	755.435730	733.293640	34.071175
207.197769	727.646667	755.732910	730.693054	10.846544
207.574921	733.962341	758.482117	736.934387	12.121016
207.952042	727.646545	761.900085	734.853943	21.041321
208.329147	724.897400	759.522461	740.798096	45.922504
208.706223	763.757629	806.853210	783.002014	44.655125
209.083267	769.627625	809.156555	792.141296	56.954922
209.460297	771.039368	811.014160	795.707825	61.710030
209.837280	735.076843	764.946533	746.668152	38.806255
210.214264	730.247131	769.107422	738.420471	21.032627
210.591217	728.538147	770.444885	730.767334	5.319400
210.968124	728.983948	771.559509	739.237793	24.083876
211.345016	731.733215	767.472839	743.101563	31.808805
211.721893	731.361633	758.853699	735.448303	14.864907
212.098724	732.773438	756.030273	721.627991	-47.923317
212.475555	732.847717	755.510071	725.194580	-33.770267
212.852356	728.686768	758.779358	724.748779	-13.086239
213.229126	726.829285	765.912415	735.374023	21.862986
213.605865	724.154297	762.643066	721.033630	-8.107992
213.982590	721.776672	765.020813	725.863281	9.450087
214.359283	715.237976	762.494446	724.451477	19.496803
214.735931	709.591003	762.791748	734.408020	46.647873
215.112579	714.346375	757.367676	730.395752	37.305653
215.489197	719.250305	755.732910	724.748718	15.071328
215.865799	725.120300	759.819641	725.937561	2.355263
216.242355	716.575439	762.197266	724.005676	16.286583
216.618896	717.764221	760.785583	728.463867	24.870543
216.995407	718.135742	763.163269	725.640381	16.666780
217.371902	723.411316	764.129150	729.727051	15.510980
217.748367	732.922058	762.791687	734.630920	5.721070
218.124802	731.138855	753.503906	736.191345	22.591007
218.501236	730.024231	756.327393	733.665039	13.841713
218.877609	718.878845	755.881592	729.504089	28.714745
219.253983	718.433044	758.705078	725.417480	17.343142
219.630295	725.491760	755.361511	728.240967	9.203982
220.006592	728.835449	750.903320	726.680603	-9.764631
220.382889	730.024231	746.073669	727.720886	-14.351560
220.759140	717.541321	745.107727	733.367859	57.412411
221.135391	716.426819	742.952942	733.293518	63.585239
221.511581	715.535156	752.760925	741.987000	71.057884
221.887772	723.485596	756.253113	735.448425	36.508198
222.263931	724.080078	772.079590	739.683594	32.507656
222.640060	724.005676	766.581238	732.922058	20.942488
223.016159	717.095520	767.621399	728.909729	23.382490
223.392212	719.919006	757.813477	729.578430	25.490326
223.768265	726.011902	767.398438	723.782776	-5.386114
224.144302	732.773376	768.958801	727.275085	-15.194767
224.520294	721.182129	773.788574	720.513489	-1.271023
224.896286	716.055237	773.565613	726.383484	17.958927
225.272217	717.467102	775.868958	731.436035	23.918646
225.648148	727.052185	778.766785	736.265625	17.815935
226.024048	724.971619	770.890686	736.042786	24.110174
226.399902	719.621826	769.256104	733.665039	28.293377
226.775772	711.225586	763.237549	735.225403	46.142879
227.151581	718.433044	765.318054	736.117004	37.717728
227.527374	715.015137	761.825867	731.658875	35.555389
227.903137	718.730164	761.454346	724.525818	13.565278
228.278870	716.798340	758.184875	725.566101	21.185057
228.654572	717.392761	757.887695	728.018066	26.238604
229.030273	717.764343	762.271667	731.510254	30.884604
229.405930	715.683777	765.838135	723.336975	15.259289
229.781555	728.166687	768.736023	724.154297	-9.890204
230.157181	736.562927	762.568848	728.315247	-31.714626
230.532761	736.934387	764.723633	733.739319	-11.497499
230.908325	730.767273	770.221985	729.949951	-2.071544
231.283859	726.383484	775.348877	725.863281	-1.062388
231.659332	727.572266	772.674011	727.052185	-1.153127
232.034821	728.612488	765.838135	731.956116	8.982055
232.410263	719.696228	766.432556	734.779602	32.273338
232.785690	721.033630	767.844238	730.098572	19.365143
233.161087	721.925293	768.067200	726.160461	9.178573
233.536469	724.377197	763.980652	716.426819	-20.074963
233.911804	722.816895	763.757629	717.987122	-11.796987
234.287140	721.776611	764.277832	720.587830	-2.797053
234.662430	727.646484	768.661621	727.126404	-1.268021
235.037704	723.782898	774.234375	732.253357	16.789318
235.412933	725.268860	773.937073	737.380188	24.885500
235.788162	720.067688	769.479004	741.541199	43.458691
236.163345	718.730286	764.649231	735.299744	36.084145
236.538513	716.724060	769.776123	728.315247	21.848701
236.913635	716.575439	768.290100	726.234863	18.678308
237.288742	720.884949	764.500671	730.395752	21.805906
237.663834	718.655945	757.070496	738.866272	52.611126
238.038879	724.302917	762.717468	738.717590	37.523991
238.413910	719.547546	763.906311	736.414307	38.023514
238.788910	719.324646	766.135437	732.030457	27.142910
239.163879	718.432922	767.175598	734.556702	33.079388
239.538834	713.751953	763.311829	740.203796	53.373505
239.913757	718.655945	764.575012	739.980774	46.440029
240.288651	715.015076	763.757629	736.488586	44.054955
240.663528	723.782776	773.268372	735.076843	22.822939
241.038361	720.513489	777.355042	734.036621	23.790928
241.413177	722.593994	773.417053	741.838379	37.865459
241.787979	725.640320	766.061035	742.135559	40.808876
242.162735	728.092346	765.466614	739.609314	30.815233
242.537476	725.937500	770.444885	736.191406	23.038662
242.912170	720.884949	777.949463	738.940613	31.640791
243.286865	718.135742	779.212646	745.107727	44.160694
243.661514	713.157532	780.104309	737.083008	35.738056
244.036148	719.176025	779.212646	729.727051	17.574316
244.410751	725.417480	776.389160	725.789001	0.728877
244.785339	735.076843	776.166260	729.504089	-13.562505
245.159882	736.711487	776.983582	732.773438	-9.778605
245.534378	732.476135	785.231140	733.739441	2.394665
245.908890	726.160461	784.859619	734.408142	14.050765
246.283356	726.457703	777.652283	732.699036	12.191394
246.657791	725.343201	766.878418	728.166687	6.797813
247.032196	731.510254	772.228210	732.773438	3.102277
247.406586	725.640320	783.522217	734.110901	14.634250
247.780960	728.463867	787.311707	732.996338	7.702017
248.155289	727.795166	783.002136	723.411316	-7.940755
248.529602	722.965515	777.726563	723.857117	1.628168
248.903870	724.674500	784.339539	731.287354	11.083298
249.278122	717.095520	784.265320	735.671204	27.654814
249.652344	720.513489	784.116638	733.293518	20.093391
250.026550	713.751892	774.085754	727.720886	23.152826
250.400711	712.785950	780.178528	728.463867	23.263567
250.774857	713.900452	777.726563	727.720886	21.653261
251.148987	719.027405	783.968018	734.185242	23.341074
251.523071	724.674377	777.726563	735.299805	20.028255
251.897125	728.686829	783.447937	739.757813	20.216873
252.271164	723.559875	778.766785	736.042725	22.611027
252.645187	725.120300	776.389160	734.185120	17.680946
253.019165	726.234863	769.924805	732.699158	14.795841
253.393112	733.888000	777.132141	749.565918	36.254433
253.767044	729.652771	771.930969	747.485352	42.179142
254.140930	727.349304	781.293152	751.200500	44.214859
254.514801	722.148132	776.537781	734.333740	22.404278
254.888657	725.045898	782.110413	737.677429	22.135527
255.262466	731.287354	775.051697	734.110901	6.451707
255.636276	731.064453	781.441711	741.169678	20.059099
256.010010	732.922058	781.738953	746.073669	26.940697
256.383759	724.080017	780.847351	751.720642	48.691074
256.757446	730.098450	773.194092	743.472961	31.034487
257.131134	724.451477	775.646057	736.562805	23.657442
257.504791	724.228577	776.983459	733.888000	18.310009
257.878418	715.460938	775.720398	730.841614	25.524086
258.252014	723.782776	780.550049	735.151123	20.026234
258.625580	720.885010	788.797668	730.915955	14.770361
258.999115	729.875671	794.073242	734.556702	7.291600
259.372650	726.680603	793.701660	737.008728	15.410269
259.746124	727.274963	791.546875	740.500916	20.578121
260.119598	728.463867	791.398254	739.163391	17.001078
260.493042	729.281250	796.822449	734.556641	7.810627
260.866425	728.166687	803.806824	733.516541	7.072771
261.239838	717.318420	810.048340	732.327637	16.185947
261.613159	708.922302	806.556152	721.999573	13.394197
261.986511	712.340149	801.800720	720.067627	8.637859
262.359802	720.513489	792.067078	720.216248	-0.415411
262.733063	728.761169	789.020569	729.429749	1.109502
263.106293	725.937683	777.726563	729.949890	7.747237
263.479523	719.398926	785.008240	742.432800	35.107628
263.852692	719.696106	791.026855	740.575195	29.270811
264.225861	719.844788	802.172180	739.906494	24.368204
264.598969	730.990173	798.085632	732.327637	1.993374
264.972076	724.674500	792.587158	729.875671	7.658619
265.345154	726.531982	796.896729	736.117004	13.621909
265.718201	715.906738	803.509583	737.157227	24.257761
266.091217	729.801331	809.676758	749.565918	24.744265
266.464203	733.590820	815.323730	746.593750	15.909050
266.837158	739.014893	813.391846	746.519531	10.090006
267.210114	724.748718	820.673523	737.751770	13.555464
267.583038	719.770508	827.360779	737.380188	16.367353
267.955902	717.689941	834.419617	741.243958	20.178259
268.328766	722.965515	824.463074	745.925049	22.620775
268.701569	727.052063	813.168945	739.683594	14.667892
269.074371	719.473206	808.710754	737.083008	19.733624
269.447144	712.488770	815.992493	735.968445	22.684860
269.819885	709.591003	820.896484	742.209900	29.305742
270.192596	716.129700	825.577454	738.346191	20.298719
270.565277	730.767334	831.670349	742.135681	11.266608
270.937927	739.609375	831.150208	736.340027	-3.571464
271.310577	735.671326	834.419617	744.141785	8.577828
271.683136	726.011902	824.165771	740.055115	14.307345
272.055725	717.690002	829.812805	747.485413	26.573908
272.428284	717.764343	830.555847	744.438965	23.649496
272.800812	720.364929	841.849854	741.243958	17.186518
273.173279	726.977783	836.351379	734.259521	6.657675
273.545776	735.522644	833.527893	733.516541	-2.046935
273.918152	729.281250	831.075989	742.209961	12.700766
274.290558	719.621887	832.339111	745.702148	23.137777
274.662964	713.528992	837.094482	739.014893	20.625420
275.035278	720.439148	836.648621	731.213074	9.271125
275.407593	725.045898	836.500000	738.420410	12.000017
275.779907	724.822998	845.787842	750.903320	21.560249
276.152161	716.278259	852.846497	750.085999	24.755199
276.524384	712.934570	862.654541	739.906555	18.014956
276.896606	713.157410	861.242859	738.271790	16.959383
277.268799	719.027344	865.775391	738.271790	13.113936
277.640930	724.525818	863.026123	739.832214	11.051525
278.013031	731.138733	860.351257	737.305908	4.772893
278.385162	730.321472	854.704285	736.265625	4.778918
278.757233	722.296692	855.372864	731.584656	6.979434
279.129272	719.844727	859.608154	734.110840	10.207330
279.501282	718.953125	863.026062	735.225403	11.294472
279.873230	723.559875	869.861877	738.494690	10.208209
280.245178	724.971680	875.806152	727.275085	1.527108
280.617126	721.182312	877.589355	728.389587	4.608025
280.988983	715.015137	878.258118	731.658936	10.195721
281.360870	716.724060	885.465515	740.500977	14.090738
281.732697	721.702332	894.679016	735.002502	7.688996
282.104492	731.138733	902.778015	726.606262	-2.640695
282.476288	730.544373	901.960754	721.330811	-5.374960
282.848053	732.253357	908.945129	725.045898	-4.079114
283.219757	730.321472	915.409485	735.225403	2.649513
283.591461	725.194519	924.474426	737.677429	6.264009
283.963135	726.086121	923.954285	740.129395	7.097288
284.334747	736.637146	924.845947	741.095398	2.368780
284.706360	734.779602	925.291809	745.479187	5.616220
285.077942	734.333801	936.362976	752.017822	8.753201
285.449524	715.460876	947.359680	752.166504	15.828296
285.821014	713.157532	955.235779	747.485352	14.180465
286.192535	711.225647	957.687805	746.296570	14.229739
286.563995	715.609436	967.198547	738.346130	9.037233
286.935425	715.832458	964.300781	744.290283	11.453300
287.306824	719.027527	964.597961	738.271790	7.836555
287.678223	713.751953	954.418457	737.528809	9.879586
288.049561	726.011963	955.235779	734.110840	3.533174
288.420898	724.154358	952.783752	737.603088	5.882328
288.792145	732.327637	952.486572	744.141785	5.366190
289.163452	729.504150	958.876526	743.993164	6.316809
289.534668	737.454529	966.975586	742.729980	2.298461
289.905914	737.380188	972.548340	739.832214	1.042669
290.277039	735.745544	985.105469	745.999329	4.112042
290.648193	735.299744	1001.229187	755.955872	7.767522
291.019318	731.881836	1010.591248	755.510071	8.477732
291.390381	724.451599	1006.727539	743.770264	6.843894
291.761475	708.996582	995.582214	736.340027	9.541108
292.132507	712.042969	994.616211	738.048889	9.203250
292.503510	715.758118	1004.126953	741.763977	9.018263
292.874481	729.727051	1021.439453	755.287170	8.762095
293.245422	727.572266	1028.126709	756.550293	9.641523
293.616364	724.600159	1034.442383	758.184875	10.839296
293.987213	717.912903	1029.464233	744.438965	8.514187
294.358093	718.061523	1047.073975	744.959167	8.175266
294.728943	714.940857	1060.448364	748.822815	9.806432
295.099731	711.745789	1076.720825	741.615479	8.184036
295.470490	717.467041	1094.776245	738.940613	5.691240
295.841248	720.736328	1105.773193	731.287354	2.740264
296.211975	722.073792	1118.999146	731.138733	2.283790
296.582642	719.547546	1123.902954	727.572266	1.984571
296.953308	719.770508	1133.116577	724.600098	1.168413
297.323883	724.005676	1144.410400	728.166687	0.989763
297.694519	720.364929	1144.113281	731.064453	2.524971
298.065063	719.993408	1146.565308	738.569092	4.354643
298.435608	721.107910	1139.952271	731.658875	2.519066
298.806122	729.429871	1132.447754	732.327637	0.719017
299.176575	731.584534	1129.252808	731.956055	0.093425
299.547028	728.761047	1123.680054	735.225403	1.636881
299.917450	722.148132	1121.525269	733.739319	2.902316
300.287872	721.702332	1114.317993	731.881836	2.592740
300.658234	725.937561	1115.952515	738.123230	3.124411
301.028564	727.795166	1120.782227	746.519348	4.764580
301.398865	726.977844	1122.714111	747.188171	5.107019
301.769135	722.891113	1129.995728	750.011719	6.661827
302.139374	716.575439	1132.893555	744.513367	6.710716
302.509583	716.129639	1126.354980	736.488586	4.962869
302.879791	713.454773	1118.850464	735.522644	5.443539
303.249939	715.832458	1116.026855	733.219238	4.344584
303.620087	718.804504	1127.172241	743.621643	6.077155
303.990173	720.810730	1130.367310	740.872375	4.898382
304.360260	721.182190	1138.837891	751.349121	7.222919
304.730286	724.600159	1140.472412	754.469910	7.182434
305.100281	722.891174	1142.552856	751.497742	6.816578
305.470276	728.166687	1135.345581	748.525574	4.999986
305.840179	722.668274	1137.203125	737.900208	3.674464
306.210144	719.621887	1140.249634	741.020996	5.087422
306.579987	719.473328	1152.658081	740.129395	4.768420
306.949890	714.049133	1159.345337	745.627869	7.091625
307.319702	718.878845	1177.846680	745.925049	5.892832
307.689484	714.494934	1184.905396	740.946777	5.623141
308.059265	725.789001	1204.298462	746.965271	4.425465
308.429016	727.497986	1212.174683	743.844543	3.372673
308.798737	726.531982	1233.722412	743.770264	3.398779
309.168396	725.863281	1243.456055	735.151123	1.794430
309.538055	714.346375	1256.533325	735.002502	3.809780
309.907684	719.324646	1268.793213	736.340027	3.096698
310.277313	714.569336	1281.796143	738.494812	4.217973
310.646851	723.559875	1294.353394	748.525574	4.373858
311.016388	717.764343	1306.241821	757.516296	6.755051
311.385895	724.525818	1312.483276	760.785461	6.167052
311.755371	723.931396	1314.415039	750.160339	4.441942
312.124817	722.148132	1313.300537	748.599915	4.474613
312.494232	719.993347	1310.254272	743.993103	4.065957
312.863617	721.330811	1307.876343	748.376953	4.611090
313.232971	724.377258	1304.978638	738.346191	2.405942
313.602295	719.473328	1306.910522	739.089172	3.339224
313.971619	717.095520	1316.049805	736.637207	3.262634
314.340820	721.702332	1320.359253	738.643372	2.829841
314.710083	729.058350	1331.430542	740.278015	1.862580
315.079285	730.618652	1344.433472	736.265625	0.919980
315.448486	729.652649	1366.204102	743.621582	2.194470
315.817596	717.838562	1358.328003	740.872375	3.596283
316.186707	719.621765	1352.532349	742.209961	3.568939
316.555786	717.169739	1331.950684	736.414307	3.130313
316.924866	724.080017	1334.551147	737.454407	2.190831
317.293884	713.083191	1332.322144	740.798035	4.475630
317.662872	709.293762	1336.557251	740.352234	4.951424
318.031830	709.739563	1343.393066	735.522644	4.068956
318.400757	724.154297	1354.538574	737.677429	2.145221
318.769684	724.897278	1368.730469	743.324402	2.862096
319.138550	717.244141	1373.188599	752.166504	5.323982
319.507416	713.306152	1378.092407	754.692810	6.225559
319.876190	713.603333	1378.909790	755.435730	6.287688
320.244995	717.541321	1387.157593	753.578125	5.381710
320.613770	719.547546	1381.064819	747.262451	4.189597
320.982483	724.228699	1377.869629	735.151184	1.671022
321.351166	727.572266	1367.690063	730.247253	0.417890
321.719818	725.120178	1363.826294	733.962341	1.384387
322.088440	727.646545	1368.730347	741.615479	2.178956
322.457062	730.395752	1385.225586	742.804382	1.894940
322.825623	721.925232	1408.705200	743.918884	3.202431
323.194183	717.021179	1418.884766	741.541199	3.493559
323.562653	710.408264	1439.912476	739.312073	3.962117
323.931183	719.621826	1457.596558	736.711487	2.315752
324.299591	719.398926	1492.741821	743.993164	3.180250
324.668060	724.228699	1513.100586	753.726868	3.739285
325.036407	724.302917	1536.654663	751.423401	3.338515
325.404755	725.937683	1552.555298	740.946777	1.815724
