Jaz Data File
++++++++++++++++++++++++++++++++++++
Date: Fri Jun 04 16:53:08 2021
User: jaz
Dark Spectrum Present: Yes
Reference Spectrum Present: Yes
Processed Spectrum Present: Yes
Spectrometers: JAZA3586
Integration Time (usec): 24600 (JAZA3586)
Spectra Averaged: 10 (JAZA3586)
Boxcar Smoothing: 1 (JAZA3586)
Correct for Electrical Dark: No (JAZA3586)
Strobe/Lamp Enabled: Yes (JAZA3586)
Correct for Detector Non-linearity: No (JAZA3586)
Correct for Stray Light: No (JAZA3586)
Number of Pixels in Processed Spectrum: 2048
>>>>>Begin Processed Spectral Data<<<<<
W	D	R	S	P
191.335022	0.000000	0.000000	0.000000	0.000000
191.713211	227.812149	233.756348	235.093796	122.500061
192.091385	455.401367	470.633423	467.809937	81.463524
192.469528	695.027649	713.083191	703.052307	44.444294
192.847641	705.281433	715.386536	707.956299	26.470446
193.225739	723.634216	724.748718	726.309082	240.005478
193.603790	731.584534	727.275085	747.559631	-370.699371
193.981842	739.757813	742.507080	756.178772	597.284851
194.359863	740.649475	740.798096	758.259277	11848.829102
194.737854	744.141785	746.890930	749.937317	210.812134
195.115829	742.284241	741.243958	751.126221	-849.958923
195.493774	742.655762	746.445129	745.850769	84.315048
195.871704	739.609314	740.055176	746.519470	1549.842529
196.249603	745.256348	746.222229	747.931152	276.928925
196.627457	745.702148	748.674133	748.451355	92.504059
197.005310	744.439026	752.835144	747.113831	31.857635
197.383133	741.689758	753.875427	748.377014	54.878036
197.760910	735.076843	761.602844	748.599915	50.980438
198.138687	738.049011	765.838196	754.246887	58.288418
198.516449	736.191345	752.983826	745.702148	56.637276
198.894180	749.788757	743.398743	744.364685	84.883568
199.271866	750.085999	743.472961	738.048889	182.020889
199.649536	751.274902	751.497742	744.364685	-3100.986084
200.027191	749.342957	753.132385	746.742371	-68.627388
200.404816	752.760925	750.457520	751.794922	41.938049
200.782410	750.308899	760.265381	750.977600	6.716239
201.159988	742.952881	773.119812	748.748535	19.211945
201.537537	735.671204	777.206482	745.330566	23.255804
201.915070	735.151184	784.116699	743.175781	16.388262
202.292557	731.064453	777.578064	743.175781	26.038246
202.670029	735.522644	780.772949	746.593750	24.466368
203.047485	736.042786	774.234375	750.160339	36.965084
203.424911	739.832214	775.571777	753.429688	38.045998
203.802292	732.030457	776.686340	745.256348	29.617353
204.179688	728.686768	769.924805	737.900330	22.342388
204.557037	725.566101	758.184998	739.757874	43.507824
204.934357	724.451477	759.225281	744.736145	58.333187
205.311661	722.816895	760.116882	742.135559	51.792683
205.688934	724.377258	763.163269	739.312073	38.505672
206.066177	725.120300	758.036377	743.027161	54.401562
206.443390	730.544434	759.002258	748.376953	62.662975
206.820587	728.761169	761.825745	745.181946	49.662746
207.197769	722.965515	764.203430	734.779602	28.648603
207.574921	721.553711	757.813477	730.692932	25.204855
207.952042	718.210144	756.847473	727.720886	24.615423
208.329147	721.330811	761.602844	734.333801	32.287891
208.706223	727.126465	778.543884	750.754700	45.953754
209.083267	733.813721	777.875183	747.708252	31.534431
209.460297	745.404968	764.426453	746.742371	7.031009
209.837280	734.853943	752.686523	730.618652	-23.750296
210.214264	733.219238	755.510071	733.888000	3.000167
210.591217	719.547546	763.460449	728.612488	20.643002
210.968124	720.513489	763.831970	729.429749	20.583038
211.345016	714.123474	763.906250	728.389587	28.656725
211.721893	713.677551	762.123047	730.321472	34.355972
212.098724	713.528992	764.723633	729.949951	32.075542
212.475555	717.764221	758.482239	737.008728	47.262878
212.852356	718.507324	753.875427	735.299805	47.479168
213.229126	714.420593	755.435730	732.773438	44.746513
213.605865	713.900574	759.076599	722.816895	19.736841
213.982590	721.553711	764.352051	724.302917	6.423629
214.359283	731.733215	758.630676	720.959290	-40.055550
214.735931	737.900330	759.002258	723.559875	-67.958023
215.112579	735.299744	759.448059	718.433044	-69.846275
215.489197	728.909668	757.664856	726.680603	-7.751871
215.865799	715.906738	747.559631	725.045898	28.873064
216.242355	709.516663	740.129395	730.024231	66.990326
216.618896	705.950134	738.866211	728.984070	69.977768
216.995407	700.154541	745.776367	728.463867	62.052155
217.371902	698.594238	745.479187	734.110901	75.752800
217.748367	703.200989	746.445129	731.807556	66.151314
218.124802	713.008850	748.302734	734.110901	59.789539
218.501236	716.426819	754.915588	726.011902	24.903584
218.877609	716.724060	761.825745	724.451599	17.133593
219.253983	721.553711	768.141541	720.736328	-1.754499
219.630295	725.863220	773.416992	719.844727	-12.656185
220.006592	727.423584	768.810242	723.634277	-9.155866
220.382889	724.897278	761.231445	726.606384	4.703855
220.759140	723.634094	762.048767	726.680603	7.930586
221.135391	721.999512	764.946533	728.166687	14.359961
221.511581	719.250305	757.962097	735.596924	42.226460
221.887772	714.792175	749.342957	742.284180	79.569847
222.263931	707.287598	745.404846	743.621643	95.321793
222.640060	707.436218	755.881592	738.271912	63.650440
223.016159	711.968689	757.219055	731.733215	43.678158
223.392212	718.953125	762.866028	732.030457	29.780157
223.768265	726.829163	756.030212	728.240967	4.834772
224.144302	725.714661	758.853699	728.909668	9.641219
224.520294	732.104675	760.191162	724.451477	-27.248684
224.896286	724.080078	766.061035	727.869385	9.026251
225.272217	725.417480	767.101318	732.996338	18.181765
225.648148	720.513489	765.020813	737.677429	38.564304
226.024048	723.931396	771.633789	739.683594	33.021816
226.399902	724.005676	766.358215	740.872498	39.824818
226.775772	721.033630	769.033203	738.569031	36.532410
227.151581	722.965515	763.534729	743.472961	50.549282
227.527374	724.674500	762.717468	739.312073	38.476421
227.903137	724.302979	759.745361	732.253357	22.431839
228.278870	721.776672	766.135437	727.720886	13.400314
228.654572	716.946960	772.153992	729.281250	22.341881
229.030273	719.027405	773.119812	734.556702	28.708830
229.405930	718.730164	768.215820	731.436035	25.675867
229.781555	712.637390	773.045471	732.922058	33.579395
230.157181	708.699402	778.469666	741.615417	47.177715
230.532761	705.429993	778.618164	742.432800	50.558453
230.908325	713.900574	770.073425	734.705261	37.036907
231.283859	718.284424	765.763855	734.556702	34.272266
231.659332	720.885010	767.398499	736.637207	33.865868
232.034821	718.432922	766.283997	741.021057	47.205074
232.410263	717.095520	760.042664	734.333801	40.138367
232.785690	724.377197	762.791809	741.912781	45.648212
233.161087	725.789001	770.965088	744.736145	41.940647
233.536469	723.411316	775.125977	742.061279	36.063202
233.911804	717.318420	764.054871	731.361633	30.047667
234.287140	717.764343	755.658691	727.572266	25.882282
234.662430	718.655945	761.602844	732.179016	31.487886
235.037704	714.346375	766.729797	732.253357	34.184444
235.412933	710.779785	777.206543	735.076843	36.577213
235.788162	711.299988	767.101318	732.253235	37.549728
236.163345	718.581726	767.621399	729.206848	21.666380
236.538513	722.371094	756.773193	729.281189	20.086260
236.913635	728.463867	759.448059	718.804504	-31.175133
237.288742	724.674500	762.717468	719.250305	-14.258073
237.663834	728.612549	767.844299	722.445313	-15.720013
238.038879	728.389648	769.627625	732.624817	10.270069
238.413910	733.219238	771.633789	738.494690	13.732951
238.788910	730.247070	770.370605	735.596924	13.333455
239.163879	721.925232	776.834961	735.968445	25.575090
239.538834	719.919006	779.658508	731.510254	19.402987
239.913757	715.386536	777.578064	730.470032	24.253298
240.288651	724.005676	777.503662	731.881836	14.722348
240.663528	716.946960	767.472839	730.024231	25.882322
241.038361	717.318420	772.674011	731.287415	25.235020
241.413177	712.117188	772.674011	726.383362	23.558327
241.787979	715.460876	777.652344	727.349426	19.116047
242.162735	724.748718	775.868958	723.782898	-1.889311
242.537476	723.485596	767.324219	722.742615	-1.694809
242.912170	726.903564	772.674011	724.080078	-6.168798
243.286865	717.615723	778.618225	726.309082	14.250824
243.661514	722.222473	795.039063	728.612488	8.775493
244.036148	727.275085	798.308411	729.429749	3.033313
244.410751	724.971680	802.320801	729.206848	5.475393
244.785339	716.798340	791.323975	725.268799	11.365832
245.159882	710.705505	785.676941	729.504150	25.074409
245.534378	718.433044	780.624329	721.702332	5.256825
245.908890	725.417480	791.769836	719.770508	-8.510584
246.283356	724.748718	791.769836	711.968750	-19.068569
246.657791	712.860291	796.227966	718.061523	6.238908
247.032196	712.042969	794.518982	732.550537	24.864887
247.406586	710.556946	803.955383	738.791992	30.230747
247.780960	717.987244	811.088562	742.284180	26.097305
248.155289	720.810730	816.661194	735.002502	14.806159
248.529602	720.885071	813.020447	736.117004	16.532124
248.903870	724.600159	798.605652	735.151123	14.257002
249.278122	727.572205	786.494324	733.887939	10.718784
249.652344	734.185120	787.831787	733.739441	-0.830767
250.026550	732.624756	794.890442	729.652649	-4.773266
250.400711	728.463867	803.435364	735.002502	8.721495
250.774857	722.668274	797.788330	728.315247	7.517263
251.148987	726.754883	800.240295	724.525879	-3.033260
251.523071	720.513489	798.382813	721.627991	1.431247
251.897125	717.541321	803.732605	726.606262	10.517237
252.271164	715.460938	803.658203	734.185242	21.230028
252.645187	718.358704	800.834717	732.476257	17.117163
253.019165	718.878845	801.800598	732.401917	16.308231
253.393112	715.386536	806.184509	734.928223	21.522161
253.767044	712.265869	811.014160	737.157410	25.207060
254.140930	713.231750	811.905762	734.631042	21.686857
254.514801	708.699402	804.475586	729.355530	21.567081
254.888657	707.436218	806.481750	731.733215	24.531139
255.262466	707.584778	808.190674	738.569031	30.797651
255.636276	714.569336	814.209167	743.324463	28.859068
256.010010	725.045959	819.707520	745.404846	21.507027
256.383759	726.977783	818.147278	738.346191	12.469531
256.757446	725.268860	815.695251	739.386414	15.612206
257.131134	726.457703	807.967834	727.795166	1.640855
257.504791	732.922058	807.744873	727.349304	-7.447934
257.878418	729.727051	818.221619	727.497986	-2.518872
258.252014	721.033630	830.630127	735.151123	12.881335
258.625580	713.083191	857.527771	736.934387	16.512352
258.999115	723.336975	870.010559	739.906555	11.296908
259.372650	727.572266	890.369446	743.398743	9.721592
259.746124	730.915833	907.979309	748.525635	9.945474
260.119598	730.172852	925.589050	739.163391	4.600714
260.493042	724.674377	937.700378	733.070618	3.941416
260.866425	719.547546	929.527039	726.829285	3.467833
261.239838	716.798340	920.462097	729.652649	6.311535
261.613159	716.575439	903.892578	736.117004	10.432343
261.986511	723.782776	898.617004	734.110840	5.907347
262.359802	720.587830	898.171204	741.838379	11.966519
262.733063	726.457703	888.586243	738.717712	7.561907
263.106293	723.336975	890.815369	744.587585	12.688568
263.479523	724.080078	880.413025	738.494812	9.220535
263.852692	720.216309	882.121887	736.117004	9.820969
264.225861	717.021301	872.165344	737.305908	13.074693
264.598969	716.798340	875.731934	740.055115	14.633014
264.972076	717.318420	881.378906	747.039551	18.115959
265.345154	720.884949	885.539795	745.404968	14.891769
265.718201	720.290527	884.425293	737.380188	10.411969
266.091217	722.296692	894.679016	735.671326	7.758704
266.464203	723.782898	904.189880	735.076843	6.260260
266.837158	725.640381	917.192871	742.209900	8.650120
267.210114	720.662109	921.502380	737.900330	8.583050
267.583038	718.730164	932.944885	740.129395	9.989617
267.955902	725.789001	940.672424	736.860046	5.152117
268.328766	732.030457	944.313293	741.169617	4.305181
268.701569	735.448303	944.536133	741.392517	2.842927
269.074371	728.389587	953.898254	737.677429	4.118618
269.447144	730.098450	965.192383	735.596985	2.338867
269.819885	727.126465	967.793030	735.596924	3.519583
270.192596	719.844727	974.926086	737.528809	6.932722
270.565277	716.501160	986.888855	734.853943	6.787581
270.937927	712.488770	1007.470642	733.367859	7.078093
271.310577	719.919128	1027.829590	736.265625	5.308847
271.683136	716.129639	1046.999634	734.779602	5.636644
272.055725	719.324707	1070.330688	734.333740	4.276005
272.428284	714.866455	1080.287476	732.847717	4.920697
272.800812	714.272034	1081.104614	738.643372	6.643722
273.173279	706.841797	1075.829224	739.014832	8.719276
273.545776	706.990417	1074.714478	746.742371	10.810267
273.918152	706.544617	1070.925049	743.250183	10.073419
274.290558	719.324646	1062.974609	743.993164	7.178385
274.662964	722.668274	1060.076904	735.596985	3.831767
275.035278	724.674500	1062.231812	733.219238	2.531345
275.407593	720.736389	1069.587524	732.624817	3.407880
275.779907	722.519714	1082.070557	730.470032	2.211180
276.152161	725.714661	1096.633911	732.030457	1.702742
276.524384	719.547546	1100.348999	734.705322	3.980493
276.896606	716.278259	1099.308716	743.398743	7.080503
277.268799	713.008850	1101.612183	745.925049	8.470386
277.640930	718.730225	1120.262085	740.575256	5.440423
278.013031	721.405090	1126.280640	739.163513	4.386144
278.385162	727.423645	1124.051636	734.705322	1.835896
278.757233	720.290527	1112.088867	731.436035	2.844705
279.129272	720.885010	1121.451050	721.850891	0.241129
279.501282	714.940735	1126.503540	720.290527	1.299873
279.873230	721.405090	1142.181396	726.011902	1.094836
280.245178	721.627991	1153.772705	730.618652	2.080475
280.617126	732.922058	1182.527832	727.943848	-1.107239
280.988983	735.819824	1211.357300	728.761047	-1.484379
281.360870	737.083008	1240.558228	729.058289	-1.593866
281.732697	730.024231	1264.335083	736.488586	1.209849
282.104492	731.881836	1286.031372	736.414307	0.817915
282.476288	725.120300	1307.802124	736.191406	1.900026
282.848053	727.572266	1337.597534	733.590820	0.986607
283.219757	718.358704	1344.433350	732.847839	2.314282
283.591461	728.240967	1338.712036	734.036621	0.949374
283.963135	723.857117	1319.319092	728.389587	0.761169
284.334747	733.442200	1323.703003	723.485535	-1.686825
284.706360	726.234802	1343.616211	722.816895	-0.553614
285.077942	718.655823	1375.789185	729.058289	1.583007
285.449524	711.968689	1407.739380	735.894104	3.438693
285.821014	713.380432	1428.395508	731.064453	2.473238
286.192535	727.349365	1448.234375	736.785828	1.309011
286.563995	730.024231	1464.655273	731.436035	0.192179
286.935425	731.584534	1477.732544	741.689758	1.354319
287.306824	727.423645	1477.583984	732.327637	0.653726
287.678223	721.999512	1468.593384	734.705322	1.701837
288.049561	723.708496	1459.082520	732.699219	1.222605
288.420898	724.600159	1445.708008	733.590820	1.246785
288.792145	725.714661	1431.813354	727.869446	0.305168
289.163452	725.268860	1439.689453	719.101746	-0.863233
289.534668	724.005676	1458.933960	729.132629	0.697613
289.905914	731.807434	1497.497070	739.312073	0.980115
290.277039	730.470032	1524.617554	744.959045	1.824474
290.648193	727.275085	1567.267212	743.324402	1.910651
291.019318	723.931396	1603.675781	742.655762	2.128387
291.390381	724.823059	1622.845703	740.649597	1.762376
291.761475	731.584534	1625.372070	740.352356	0.980974
292.132507	732.996399	1606.573364	734.185242	0.136089
292.503510	726.457703	1592.604492	736.711426	1.183832
292.874481	727.052063	1575.737793	728.315247	0.148840
293.245422	719.844727	1582.053589	731.807434	1.387449
293.616364	719.324646	1606.647827	731.510315	1.373307
293.987213	713.083191	1643.724976	733.665039	2.211576
294.358093	717.689941	1684.962891	731.510254	1.428791
294.728943	724.228699	1731.848022	729.801331	0.553049
295.099731	726.531982	1778.807129	739.683594	1.249826
295.470490	727.646484	1814.398071	744.438965	1.545200
295.841248	726.680603	1831.562134	751.497742	2.246135
296.211975	727.497864	1847.537231	742.061279	1.300259
296.582642	731.807434	1883.351196	739.237732	0.645247
296.953308	724.822998	1932.688110	730.841553	0.498280
297.323883	720.885010	1981.281860	733.219238	0.978599
297.694519	716.129639	2010.185669	732.550537	1.268948
298.065063	721.479431	2014.866821	737.900330	1.269604
298.435608	728.389587	2000.229126	734.928223	0.514108
298.806122	725.194519	1953.790039	737.008606	0.961593
299.176575	720.959290	1911.065918	733.665039	1.067614
299.547028	708.699402	1871.239624	736.562805	2.396769
299.917450	714.494934	1845.308105	733.144958	1.649258
300.287872	721.553711	1829.927368	740.352356	1.696057
300.658234	731.584656	1815.289917	740.055115	0.781620
301.028564	724.971680	1811.871704	741.764099	1.544983
301.398865	719.027405	1805.036011	732.624817	1.252054
301.769135	715.386536	1811.723267	734.036560	1.701122
302.139374	715.460938	1829.333008	736.934387	1.927820
302.509583	714.643555	1839.735352	745.404846	2.734114
302.879791	717.392761	1835.500122	746.370850	2.591709
303.249939	720.290527	1818.336304	743.695984	2.131556
303.620087	723.039795	1810.757324	744.364746	1.960523
303.990173	716.872620	1802.658203	746.222351	2.703087
304.360260	723.336975	1796.862671	750.457520	2.526306
304.730286	726.903503	1796.342407	740.946777	1.313144
305.100281	727.349365	1810.311401	743.770264	1.516295
305.470276	719.919128	1833.419556	741.392578	1.928463
305.840179	715.535156	1838.694946	747.485352	2.844671
306.210144	717.912903	1843.301758	740.426575	2.000524
306.579987	721.479492	1844.936523	739.089172	1.567455
306.949890	718.730286	1864.552368	735.819824	1.491465
307.319702	725.268860	1883.351074	738.420471	1.135637
307.689484	724.451477	1908.985718	736.414307	1.009918
308.059265	728.538147	1936.923462	744.216064	1.297427
308.429016	722.445313	1974.520508	745.404846	1.833718
308.798737	725.120178	2012.340698	744.959045	1.541218
309.168396	727.423584	2054.693359	742.507080	1.136430
309.538055	730.841553	2085.157471	743.472961	0.932678
309.907684	726.903503	2120.525391	744.884766	1.290254
310.277313	725.120300	2145.788330	738.569031	0.946648
310.646851	726.903503	2160.723145	737.677429	0.751414
311.016388	725.640381	2176.103760	743.101563	1.203835
311.385895	722.668213	2179.967529	747.411072	1.697857
311.755371	726.680664	2209.985840	742.358459	1.056950
312.124817	723.039795	2198.543213	736.637207	0.921544
312.494232	731.807556	2200.920654	736.637146	0.328742
312.863617	725.268860	2176.920898	739.906433	1.008339
313.232971	727.943787	2170.531006	747.336731	1.344317
313.602295	721.256531	2157.825439	746.370789	1.748211
313.971619	718.581604	2158.642578	738.123230	1.357000
314.340820	718.953125	2167.038818	734.779602	1.092924
314.710083	730.618652	2188.735352	736.637207	0.412762
315.079285	730.544250	2212.958008	740.055115	0.641580
315.448486	737.751709	2256.350830	741.021057	0.215287
315.817596	725.417480	2253.155518	741.318176	1.040800
316.186707	731.881775	2239.186768	745.553528	0.907033
316.555786	724.005676	2196.165283	741.020996	1.155807
316.924866	723.931396	2165.849854	740.723816	1.164589
317.293884	717.615723	2137.986328	739.609314	1.548440
317.662872	720.885010	2133.454102	745.033386	1.709536
318.031830	725.194580	2139.621338	745.256348	1.418367
318.400757	725.120300	2152.549805	743.472961	1.285714
318.769684	723.039795	2168.004639	743.844543	1.439810
319.138550	721.776672	2195.868164	743.547363	1.476889
319.507416	732.550537	2220.759766	750.680420	1.218235
319.876190	730.618652	2229.601807	744.587585	0.931894
320.244995	733.070618	2225.738037	745.776428	0.851215
320.613770	720.959290	2201.589600	745.702148	1.671103
320.982483	719.324646	2194.531006	750.680359	2.125514
321.351166	711.448547	2178.184326	747.708252	2.472136
321.719818	720.959290	2177.441406	739.089172	1.244772
322.088440	726.086182	2167.633057	737.454529	0.788621
322.457062	722.891174	2195.422607	738.569031	1.064687
322.825623	715.386536	2224.326416	748.451355	2.191262
323.194183	718.210144	2265.861572	745.999329	1.795571
323.562653	729.058289	2304.796143	748.079834	1.207152
323.931183	727.572266	2363.272461	745.776428	1.112928
324.299591	722.965515	2415.061279	748.525635	1.510560
324.668060	722.073914	2481.636475	736.414307	0.814998
325.036407	722.965515	2527.184326	730.841553	0.436535
