Jaz Data File
++++++++++++++++++++++++++++++++++++
Date: Fri Jun 04 16:50:41 2021
User: jaz
Dark Spectrum Present: Yes
Reference Spectrum Present: Yes
Processed Spectrum Present: Yes
Spectrometers: JAZA3586
Integration Time (usec): 24900 (JAZA3586)
Spectra Averaged: 10 (JAZA3586)
Boxcar Smoothing: 1 (JAZA3586)
Correct for Electrical Dark: No (JAZA3586)
Strobe/Lamp Enabled: Yes (JAZA3586)
Correct for Detector Non-linearity: No (JAZA3586)
Correct for Stray Light: No (JAZA3586)
Number of Pixels in Processed Spectrum: 2048
>>>>>Begin Processed Spectral Data<<<<<
W	D	R	S	P
191.335022	0.000000	0.000000	0.000000	0.000000
191.713211	231.155762	234.127869	236.802780	190.000519
192.091385	464.763519	467.438385	476.949188	455.561890
192.469528	701.492004	705.652893	711.968689	251.789597
192.847641	713.603333	712.860291	711.894348	229.998352
193.225739	723.857117	731.064453	713.528992	-143.300171
193.603790	734.482422	738.271790	722.742615	-309.809143
193.981842	733.739441	737.900330	736.340027	62.500732
194.359863	736.117004	734.185120	744.290344	-423.075958
194.737854	737.974609	738.123230	749.788757	7949.199219
195.115829	740.500916	744.736145	748.525574	189.473984
195.493774	744.141785	746.147949	753.058105	444.446136
195.871704	743.472961	746.593750	756.847473	428.561920
196.249603	746.445068	755.361511	756.698975	114.999969
196.627457	747.188171	758.556458	754.989929	68.627388
197.005310	747.188171	764.203430	747.931152	4.366557
197.383133	750.606140	760.339783	750.680420	0.763124
197.760910	754.246887	757.293274	747.856873	-209.757172
198.138687	752.909485	756.327393	751.051941	-54.347401
198.516449	751.943542	754.989990	748.674133	-107.318733
198.894180	745.330566	752.612305	747.931152	35.713806
199.271866	748.154053	751.572083	746.890930	-36.954697
199.649536	744.736145	746.816650	748.451355	178.572479
200.027191	745.553467	751.051941	735.374023	-185.132156
200.404816	740.500916	744.364685	735.151062	-138.462021
200.782410	742.432800	759.448059	733.516418	-52.402271
201.159988	746.370850	763.311829	742.952881	-20.175745
201.537537	747.931152	776.314880	746.073547	-6.544612
201.915070	745.999268	771.559509	742.135559	-15.116088
202.292557	737.008606	778.320984	743.770203	16.366999
202.670029	728.835388	777.726563	742.284180	27.507607
203.047485	720.885010	782.333313	744.216003	37.968491
203.424911	718.358704	770.667786	747.856934	56.392178
203.802292	723.188416	771.633789	745.776367	46.625610
204.179688	728.538147	771.930969	741.987000	30.993265
204.557037	728.835388	782.556335	738.866272	18.672201
204.934357	735.374023	782.704895	732.699036	-5.651677
205.311661	737.603088	775.571777	736.414246	-3.131114
205.688934	741.912659	776.091980	733.293518	-25.217413
206.066177	736.191406	769.999084	737.677429	4.395519
206.443390	740.278015	775.051758	734.779602	-15.811968
206.820587	744.216064	767.101318	731.435974	-55.844215
207.197769	743.101501	768.810242	727.200684	-61.849854
207.574921	737.751709	772.302429	724.154297	-39.354931
207.952042	727.052185	774.159973	726.309082	-1.577453
208.329147	726.309082	773.045471	727.869446	3.338649
208.706223	732.179016	770.073425	738.569092	16.862846
209.083267	734.036621	768.364441	743.993164	29.004297
209.460297	734.333801	767.992920	736.934387	7.726245
209.837280	723.485596	767.398499	720.736389	-6.260590
210.214264	726.457703	769.479004	715.163635	-26.252268
210.591217	725.640381	767.101318	716.055359	-23.118198
210.968124	722.668274	765.912415	725.120300	5.670193
211.345016	723.188416	764.054871	721.107910	-5.090986
211.721893	720.662109	770.370605	722.816833	4.334720
212.098724	717.095520	765.986755	713.306152	-7.750607
212.475555	702.383606	762.048767	717.838562	25.902815
212.852356	708.773682	761.974426	724.600159	29.748600
213.229126	711.448547	765.838135	729.206848	32.650185
213.605865	725.417480	768.661621	729.949890	10.480980
213.982590	719.027527	761.602844	731.287354	28.795620
214.359283	722.445313	756.104492	737.825989	45.695339
214.735931	720.141907	760.785583	736.191345	39.488155
215.112579	718.284363	756.104492	731.658875	35.363476
215.489197	719.324646	761.825867	729.504089	23.950943
215.865799	714.049133	760.934143	735.596863	45.958675
216.242355	717.541321	764.203430	737.528809	42.834515
216.618896	722.816895	761.751465	739.832214	43.702343
216.995407	731.733215	762.866028	737.603088	18.854298
217.371902	732.104675	764.277832	734.853943	8.545221
217.748367	733.219238	768.736023	730.544434	-7.531100
218.124802	732.104675	763.683350	725.120300	-22.117378
218.501236	736.934387	768.067200	720.513489	-52.744667
218.877609	731.510315	760.265442	721.628113	-34.366749
219.253983	727.572266	757.516174	723.336975	-14.144080
219.630295	726.309082	750.829041	727.200745	3.636477
220.006592	721.479431	749.342957	723.931396	8.799911
220.382889	720.142029	754.395508	722.742615	7.592180
220.759140	717.095520	761.751465	729.058289	26.788748
221.135391	717.764343	770.816406	733.888000	30.392139
221.511581	717.689941	775.497498	731.733215	24.293146
221.887772	714.420654	770.890808	726.309082	21.052586
222.263931	711.522888	761.454285	724.600098	26.190353
222.640060	704.984192	756.253113	730.024231	48.840580
223.016159	706.470276	760.785583	737.528870	57.182026
223.392212	709.145203	769.627625	745.553528	60.196541
223.768265	723.188416	774.457275	740.203674	33.188293
224.144302	723.485596	775.200378	738.717590	29.453850
224.520294	731.881836	767.918640	731.138855	-2.061728
224.896286	728.389648	763.757751	739.014893	30.041883
225.272217	728.315247	766.135315	733.293518	13.163042
225.648148	724.525818	769.701843	733.813660	20.559227
226.024048	722.593933	772.599609	730.692871	16.196037
226.399902	718.953125	775.943359	732.179016	23.207294
226.775772	723.857178	779.064026	733.442200	17.362017
227.151581	729.206970	777.726563	740.500977	23.277208
227.527374	734.036621	776.983582	739.163513	11.937730
227.903137	730.395752	775.794739	736.785828	14.075371
228.278870	730.990234	779.807129	724.971680	-12.328835
228.654572	736.042786	772.302490	728.463867	-20.901766
229.030273	733.590759	765.912415	730.767273	-8.735587
229.405930	723.782776	759.893982	735.299622	31.892719
229.781555	724.674500	762.048767	734.185242	25.447300
230.157181	724.302917	765.838135	729.058289	11.449010
230.532761	731.658875	771.262207	730.395752	-3.189435
230.908325	720.885010	776.983582	727.720886	12.185473
231.283859	720.736389	776.091980	727.720886	12.617510
231.659332	713.603333	773.862793	730.544250	28.113293
232.034821	725.120300	770.816406	735.596924	22.926731
232.410263	722.668274	767.770020	741.466858	41.680389
232.785690	729.875671	768.438721	735.522644	14.643480
233.161087	724.228577	761.157043	733.219238	24.346155
233.536469	720.736328	767.472839	731.881836	23.847540
233.911804	716.501160	763.163269	729.875671	28.662468
234.287140	719.621826	766.878418	730.693054	23.427902
234.662430	724.377258	766.655457	724.080078	-0.702916
235.037704	723.485596	770.890625	725.789001	4.858990
235.412933	719.324646	778.023743	724.228699	8.354563
235.788162	718.210144	773.268372	725.343079	12.955256
236.163345	720.142029	767.027039	726.234802	12.995142
236.538513	718.953125	764.054932	723.262695	9.555205
236.913635	721.256531	774.903076	725.640320	8.171615
237.288742	723.931458	778.172363	724.674500	1.369892
237.663834	724.748779	776.017578	723.336975	-2.753730
238.038879	730.024231	771.410889	730.841614	1.974991
238.413910	727.646545	774.754456	737.008728	19.873907
238.788910	733.145020	777.800842	742.432800	20.798588
239.163879	730.692932	778.692444	735.374023	9.752373
239.538834	735.002502	776.166199	737.900391	7.039912
239.913757	728.092346	775.200256	738.346191	21.766716
240.288651	729.578430	777.057861	735.745605	12.989152
240.663528	723.337097	777.726563	729.281250	10.928868
241.038361	729.578430	778.915466	721.405090	-16.566338
241.413177	728.984070	784.190918	725.714661	-5.922108
241.787979	732.327637	787.608887	725.863281	-11.693577
242.162735	732.699219	789.243469	730.692932	-3.548171
242.537476	731.881775	785.156921	730.618652	-2.370941
242.912170	731.807556	787.237305	734.705322	5.227818
243.286865	727.869446	788.054688	739.980774	20.123419
243.661514	726.532043	789.689270	743.993164	27.647066
244.036148	730.024231	789.317810	736.339905	10.651531
244.410751	730.767273	788.128906	730.024231	-1.295364
244.785339	733.516418	786.419983	724.823059	-16.432465
245.159882	724.823059	798.977234	728.463867	4.909782
245.534378	722.222412	799.348694	727.200745	6.454781
245.908890	715.758057	795.782166	728.389648	15.784733
246.283356	716.724060	782.407654	727.572266	16.515852
246.657791	721.553711	782.779114	727.497986	9.708838
247.032196	730.024231	790.357971	733.516418	5.788117
247.406586	734.928223	803.509583	737.751709	4.116988
247.780960	726.383362	808.710754	739.683594	16.155294
248.155289	717.987122	818.444519	732.699158	14.645050
248.529602	717.689941	815.620911	729.429749	11.987839
248.903870	725.268860	823.794250	731.807434	6.636436
249.278122	727.869446	818.370178	728.018005	0.164153
249.652344	716.501160	814.655029	726.531982	10.219488
250.026550	713.008972	800.983337	726.531982	15.371535
250.400711	707.659180	798.679932	722.519714	16.326534
250.774857	721.033630	795.187744	726.086182	6.813582
251.148987	722.445374	795.633484	724.228577	2.436466
251.523071	726.383362	799.274414	737.231506	14.882684
251.897125	723.262695	804.475586	734.036621	13.266275
252.271164	727.200745	806.704651	731.881836	5.887876
252.645187	728.909668	806.778992	730.470032	2.003824
253.019165	729.578430	810.122620	725.789063	-4.704707
253.393112	724.600098	812.277344	734.185242	10.932305
253.767044	723.336975	809.899719	734.631042	13.047261
254.140930	725.045959	806.704590	738.717590	16.742420
254.514801	726.309082	810.122559	729.058289	3.280149
254.888657	735.374023	814.060608	723.857117	-14.636430
255.262466	731.361633	814.952209	722.965515	-10.044335
255.636276	734.408142	813.911926	727.869446	-8.224383
256.010010	727.943787	813.837708	731.138733	3.719642
256.383759	733.144958	821.565186	736.265686	3.529427
256.757446	724.600159	823.645691	736.860107	12.378094
257.131134	723.114075	827.360840	736.637207	12.972232
257.504791	724.005676	835.162598	732.030457	7.219326
257.878418	723.857117	840.140808	728.018066	3.578274
258.252014	718.804504	848.388428	722.148132	2.580280
258.625580	711.448547	856.561768	724.228699	8.807021
258.999115	716.724060	875.731750	724.228577	4.719594
259.372650	717.318542	890.666748	725.640381	4.800649
259.746124	723.708496	902.480896	729.875671	3.449736
260.119598	733.516418	926.257751	739.757874	3.238255
260.493042	737.900208	938.666321	743.770203	2.923798
260.866425	730.172852	952.783752	737.380188	3.237638
261.239838	711.448547	941.266907	731.361633	8.664706
261.613159	713.528992	925.886230	730.470032	7.977613
261.986511	715.386536	899.285828	732.922058	9.535395
262.359802	725.491699	881.824707	730.098450	2.946755
262.733063	731.584534	879.446960	724.228577	-4.974865
263.106293	734.408142	883.087830	722.073914	-8.295839
263.479523	732.104736	890.740967	728.018066	-2.576127
263.852692	721.702332	889.997986	734.110840	7.373042
264.225861	724.005676	890.815247	734.036560	6.013374
264.598969	728.612488	893.044434	727.423645	-0.723000
264.972076	734.482422	900.325989	724.154297	-6.227631
265.345154	734.333801	894.604736	713.157532	-13.212794
265.718201	729.281189	896.016541	721.330811	-4.768262
266.091217	732.699158	898.691406	725.789001	-4.162939
266.464203	733.144958	918.976074	738.049011	2.638984
266.837158	735.671204	926.109131	727.943665	-4.057773
267.210114	726.011780	929.155579	732.104675	2.999302
267.583038	720.959290	928.263977	727.275085	3.046625
267.955902	718.953125	932.350586	733.219238	6.685231
268.328766	715.015137	941.787048	729.429871	6.356490
268.701569	712.414551	941.341125	737.380188	10.905521
269.074371	713.751953	946.839600	744.810486	13.324830
269.447144	720.884949	951.594971	748.376953	11.916259
269.819885	722.445313	966.529785	739.906494	7.153745
270.192596	725.863281	979.384094	725.120300	-0.293065
270.565277	721.627991	996.622375	727.943787	2.296700
270.937927	723.039795	1007.544861	735.076721	4.230830
271.310577	710.854065	1030.801636	743.472961	10.195076
271.683136	714.494934	1047.891235	734.705261	6.061953
272.055725	711.299988	1081.550415	734.705261	6.321471
272.428284	717.392761	1092.695801	730.024231	3.365672
272.800812	719.250305	1101.389160	729.429871	2.663839
273.173279	723.931396	1073.228516	727.943665	1.148669
273.545776	728.389587	1071.445190	730.767273	0.693090
273.918152	724.302917	1064.906616	729.578430	1.548871
274.290558	725.268860	1075.606079	728.389587	0.890778
274.662964	724.302917	1056.213135	731.287415	2.104333
275.035278	729.801270	1054.578491	737.305908	2.310704
275.407593	725.714661	1056.064575	735.522644	2.968968
275.779907	725.863281	1070.850708	735.968445	2.929140
276.152161	723.411316	1079.395630	733.293518	2.776022
276.524384	726.977844	1103.098145	736.339905	2.489113
276.896606	722.891113	1111.717285	725.937500	0.783483
277.268799	719.919128	1122.639771	722.891113	0.737977
277.640930	721.776672	1119.370483	727.052063	1.326829
278.013031	724.971680	1133.488037	738.717590	3.364837
278.385162	726.309082	1127.246582	738.346130	3.002226
278.757233	725.789001	1133.710938	737.603088	2.896164
279.129272	726.829163	1127.618042	729.355469	0.630333
279.501282	723.559875	1138.020386	728.389465	1.165271
279.873230	729.058289	1142.850098	722.742493	-1.526322
280.245178	722.668274	1156.670532	722.296692	-0.085618
280.617126	728.166687	1174.205933	725.045898	-0.699667
280.988983	714.420593	1199.617432	730.470032	3.307820
281.360870	717.615662	1234.762695	735.819824	3.520113
281.732697	718.953125	1270.947876	734.928223	2.894067
282.104492	728.538269	1296.731079	736.711609	1.438480
282.476288	728.389465	1313.449097	738.791992	1.778028
282.848053	724.748718	1322.662598	736.562927	1.975905
283.219757	717.318420	1323.480103	730.767273	2.218691
283.591461	719.324707	1321.250977	733.739441	2.394767
283.963135	723.262695	1319.318970	736.265686	2.181504
284.334747	723.114075	1329.349976	734.110840	1.813942
284.706360	723.188293	1350.154663	727.943665	0.758473
285.077942	724.971619	1370.588013	728.612488	0.563937
285.449524	731.881836	1402.315063	735.076843	0.476559
285.821014	732.030457	1420.519409	735.522644	0.507225
286.192535	727.646545	1451.355103	734.110840	0.893218
286.563995	726.383484	1465.472656	734.705261	1.125950
286.935425	722.965515	1486.871704	739.609314	2.178775
287.306824	719.770508	1484.791382	740.500977	2.709791
287.678223	726.680664	1477.806763	735.076843	1.117812
288.049561	733.739441	1457.076294	728.835449	-0.677968
288.420898	730.024231	1444.667847	727.572266	-0.343103
288.792145	724.748718	1441.770020	729.355469	0.642484
289.163452	721.107910	1448.457153	723.708496	0.357543
289.534668	726.011902	1472.605591	731.658936	0.756373
289.905914	726.680603	1497.348267	733.145020	0.838807
290.277039	725.045898	1535.094238	742.804260	2.192260
290.648193	731.584656	1572.914429	741.615479	1.192258
291.019318	732.699158	1598.028687	742.432800	1.124848
291.390381	730.544373	1617.570313	734.928223	0.494219
291.761475	727.126465	1609.471313	731.436035	0.488422
292.132507	714.123474	1606.127808	726.531982	1.391082
292.503510	712.265930	1582.573730	732.476257	2.322205
292.874481	714.346375	1570.239380	736.637146	2.604388
293.245422	715.386536	1574.326050	734.556702	2.231841
293.616364	723.485596	1596.022461	744.290344	2.384398
293.987213	713.380432	1635.254395	739.534973	2.837106
294.358093	716.724060	1671.291138	741.838379	2.630964
294.728943	715.163635	1716.913086	736.042786	2.084269
295.099731	720.216309	1765.358398	741.169617	2.004829
295.470490	720.736328	1793.147827	742.432800	2.023148
295.841248	720.885010	1824.354858	739.980774	1.730520
296.211975	731.287354	1840.106934	739.312073	0.723717
296.582642	735.076843	1885.803101	744.810486	0.845869
296.953308	736.860107	1931.127808	738.940613	0.174208
297.323883	734.853943	1979.498657	735.596924	0.059694
297.694519	733.070618	2011.597656	730.767273	-0.180156
298.065063	733.070618	2009.739868	730.767273	-0.180418
298.435608	727.497986	1988.563843	735.745605	0.654020
298.806122	726.977844	1931.573608	732.253357	0.437949
299.176575	730.692871	1875.029175	732.922058	0.194802
299.547028	733.962219	1836.837524	726.086182	-0.714137
299.917450	734.928223	1825.692261	727.646545	-0.667576
300.287872	726.160461	1823.165894	723.114075	-0.277700
300.658234	728.240967	1817.295898	719.324646	-0.818721
301.028564	732.847717	1812.317749	725.417480	-0.688323
301.398865	737.825989	1815.586914	733.962219	-0.358500
301.769135	729.504089	1809.791382	738.569031	0.839123
302.139374	722.148132	1811.500366	735.671204	1.241386
302.509583	712.488770	1810.088501	732.699158	1.841326
302.879791	711.076965	1809.940063	734.705261	2.150249
303.249939	707.733398	1799.983398	741.021057	3.047623
303.620087	717.838562	1789.209595	746.147949	2.642351
303.990173	721.330811	1775.760742	742.061218	1.966030
304.360260	720.290527	1785.123047	748.005554	2.602759
304.730286	722.668274	1782.819702	740.798157	1.710122
305.100281	722.519592	1798.125977	750.903320	2.638858
305.470276	735.968445	1800.875000	740.129395	0.390734
305.840179	731.361633	1820.119507	740.946777	0.880374
306.210144	726.829285	1836.540405	734.259521	0.669565
306.579987	720.290588	1852.663940	739.832214	1.725723
306.949890	712.934631	1870.868164	743.027283	2.598824
307.319702	725.491760	1886.323120	741.021057	1.337774
307.689484	729.652771	1911.660278	733.962219	0.364587
308.059265	737.825989	1935.288696	732.996277	-0.403329
308.429016	727.349365	1967.907593	743.918884	1.335650
308.798737	723.411316	2000.526489	744.959045	1.687219
309.168396	723.634277	2049.046143	743.101501	1.468768
309.538055	726.011902	2088.575195	734.036560	0.588938
309.907684	725.863281	2122.308594	728.686768	0.202191
310.277313	723.039795	2149.428955	729.652771	0.463617
310.646851	727.275085	2172.017334	727.497986	0.015428
311.016388	728.686829	2186.134766	732.327637	0.249807
311.385895	724.525879	2176.549561	732.699219	0.562893
311.755371	727.646484	2178.778809	731.881836	0.291865
312.124817	731.584534	2176.772461	730.321472	-0.087398
312.494232	733.144958	2178.852783	733.739441	0.041121
312.863617	733.813660	2163.398193	735.374023	0.109148
313.232971	732.104675	2149.800781	735.299805	0.225375
313.602295	741.095398	2141.627441	734.705322	-0.456261
313.971619	738.271790	2153.441406	728.315247	-0.703558
314.340820	737.677429	2161.763428	729.949890	-0.542632
314.710083	722.742615	2190.369873	722.816895	0.005061
315.079285	716.649719	2216.450195	732.847717	1.080010
315.448486	716.278259	2255.013428	741.318176	1.627305
315.817596	725.268860	2255.756348	747.559753	1.456457
316.186707	730.544373	2227.892822	744.438965	0.927947
316.555786	729.652649	2188.066650	736.191406	0.448347
316.924866	726.309082	2146.605469	733.367859	0.496993
317.293884	714.717834	2128.772949	730.692932	1.129737
317.662872	712.488770	2122.754395	724.600098	0.858798
318.031830	715.609558	2140.735596	727.126404	0.808128
318.400757	726.309082	2149.280518	733.367859	0.496059
318.769684	727.720764	2160.277344	733.367859	0.394197
319.138550	721.999512	2182.791016	731.584656	0.656161
319.507416	717.764343	2212.511963	724.600098	0.457318
319.876190	715.163635	2229.675781	728.612549	0.888003
320.244995	722.891113	2222.022949	734.259460	0.758329
320.613770	725.640320	2197.800293	739.534973	0.943828
320.982483	736.042786	2178.630127	735.448303	-0.041209
321.351166	735.745544	2161.391846	729.578430	-0.432584
321.719818	732.847717	2159.682861	729.132568	-0.260377
322.088440	725.491760	2157.082275	732.476135	0.487875
322.457062	721.479492	2179.893066	733.590637	0.830433
322.825623	721.256531	2214.740967	729.281250	0.537315
323.194183	714.569336	2254.790283	733.887939	1.254275
323.562653	712.340271	2298.183105	732.550537	1.274418
323.931183	710.705566	2351.978271	732.773438	1.344558
324.299591	715.981018	2422.343018	728.909668	0.757673
324.668060	720.662109	2479.556396	724.228699	0.202775
325.036407	725.268799	2521.908936	730.247131	0.277091
