Jaz Data File
++++++++++++++++++++++++++++++++++++
Date: Fri Jun 04 16:58:10 2021
User: jaz
Dark Spectrum Present: Yes
Reference Spectrum Present: Yes
Processed Spectrum Present: Yes
Spectrometers: JAZA3586
Integration Time (usec): 24100 (JAZA3586)
Spectra Averaged: 10 (JAZA3586)
Boxcar Smoothing: 1 (JAZA3586)
Correct for Electrical Dark: No (JAZA3586)
Strobe/Lamp Enabled: Yes (JAZA3586)
Correct for Detector Non-linearity: No (JAZA3586)
Correct for Stray Light: No (JAZA3586)
Number of Pixels in Processed Spectrum: 2048
>>>>>Begin Processed Spectral Data<<<<<
W	D	R	S	P
191.335022	0.000000	0.000000	0.000000	0.000000
191.713211	231.750168	230.487076	230.858536	70.591217
192.091385	464.689209	467.364166	468.478638	141.663147
192.469528	703.795410	704.909973	700.823242	-266.666656
192.847641	708.996582	712.340149	705.727234	-97.780251
193.225739	713.974854	721.850891	706.693176	-92.453560
193.603790	717.392822	729.429871	724.080017	55.555103
193.981842	725.045959	740.055176	731.881775	45.544121
194.359863	737.974609	736.934387	736.117004	178.577713
194.737854	747.708252	733.293640	727.497986	140.206802
195.115829	752.315125	732.699219	724.823059	140.151901
195.493774	749.788757	734.259521	727.646667	142.583252
195.871704	748.377014	739.906494	731.064514	204.385330
196.249603	748.005554	740.203674	735.076843	165.712769
196.627457	749.714417	744.290344	733.516418	298.631683
197.005310	746.816711	745.924988	735.299622	1291.553711
197.383133	747.931213	747.782532	735.894104	8095.895020
197.760910	747.039551	745.850769	739.980774	593.782410
198.138687	748.674255	741.764099	742.061340	95.698486
198.516449	749.268616	737.603088	743.101563	52.865620
198.894180	746.965149	734.482422	743.844543	24.999390
199.271866	744.884766	737.900391	742.507019	34.043800
199.649536	743.250183	736.934387	743.695862	-7.056572
200.027191	745.627747	734.482422	737.900208	69.334358
200.404816	744.884766	732.179016	733.516418	89.474037
200.782410	740.872375	747.708313	729.801270	-161.954468
201.159988	739.312073	758.333557	733.145020	-32.421513
201.537537	734.556702	767.621399	738.494812	11.910317
201.915070	731.213074	765.095032	741.392578	30.044025
202.292557	724.005676	764.723572	745.776367	53.467133
202.670029	717.987305	765.466614	741.243958	48.982712
203.047485	717.021301	764.426331	748.005554	65.360687
203.424911	717.169922	765.243713	743.547363	54.868652
203.802292	721.628113	761.157043	748.822815	68.796959
204.179688	721.256531	755.510071	738.048889	49.023716
204.557037	730.915833	760.414063	740.203796	31.486513
204.934357	729.875671	756.847473	735.448303	20.660955
205.311661	731.584656	763.609131	731.361633	-0.696413
205.688934	719.770447	756.104492	727.795166	22.085951
206.066177	718.210144	767.027039	730.098450	24.352852
206.443390	713.083191	763.311829	735.894104	45.414158
206.820587	712.414490	766.506836	734.408020	40.659229
207.197769	702.606445	753.206726	733.293518	60.646053
207.574921	699.634338	752.092102	726.309082	50.849945
207.952042	708.327820	747.039551	722.965515	37.812038
208.329147	725.120300	753.801086	721.256531	-13.471630
208.706223	742.061218	765.318054	732.847717	-39.616314
209.083267	738.271790	769.256042	731.138733	-23.021555
209.460297	734.853943	770.221985	736.785828	5.462233
209.837280	722.891174	754.692688	719.473328	-10.747434
210.214264	717.764343	755.064209	720.810730	8.167286
210.591217	715.906738	754.841309	717.690002	4.580156
210.968124	721.107971	762.345886	723.559875	5.945752
211.345016	727.126465	763.386169	726.754883	-1.024780
211.721893	730.395813	762.866028	727.943787	-7.551617
212.098724	733.293640	761.751465	733.070618	-0.783695
212.475555	730.098572	760.488342	729.949890	-0.489249
212.852356	726.457764	758.927917	728.315247	5.720585
213.229126	720.439270	756.327332	726.606262	17.183966
213.605865	718.730225	755.658691	724.600098	15.895252
213.982590	713.677734	755.212891	721.405090	18.604374
214.359283	703.349609	758.482178	722.296814	34.366627
214.735931	709.219482	760.859863	721.850891	24.460333
215.112579	717.095642	763.014648	715.089355	-4.369185
215.489197	729.504150	757.441895	718.358704	-39.893867
215.865799	719.398926	755.658691	716.946960	-6.762220
216.242355	716.649719	748.377014	716.129578	-1.639414
216.618896	712.414490	747.485413	708.402100	-11.440788
216.995407	712.637390	749.343018	716.798340	11.335999
217.371902	708.030579	760.934143	725.788879	33.567307
217.748367	712.860352	761.677246	723.262695	21.308901
218.124802	720.067688	753.726807	720.439148	1.103594
218.501236	725.937561	750.160339	714.940735	-45.398697
218.877609	718.432922	755.064270	718.507324	0.203110
219.253983	714.866455	758.779358	717.838562	6.768186
219.630295	714.940735	752.537903	721.182129	16.600702
220.006592	717.095520	750.754700	730.395813	39.514606
220.382889	718.804504	749.194336	732.550537	45.232342
220.759140	718.804443	749.120056	731.807556	42.892464
221.135391	717.838562	749.565857	728.240967	32.786926
221.511581	716.352539	755.584412	723.411316	17.992455
221.887772	714.643555	763.237549	722.891113	16.972383
222.263931	712.117371	765.318054	724.377197	23.044491
222.640060	713.603333	763.460449	729.132568	31.147480
223.016159	716.352539	762.123047	727.126465	23.539013
223.392212	728.166687	756.104492	726.680603	-5.319258
223.768265	733.590759	757.070374	726.234802	-31.329123
224.144302	737.083008	764.500732	729.058289	-29.268364
224.520294	731.807434	773.491394	723.262695	-20.498865
224.896286	724.154297	774.531555	723.634216	-1.032372
225.272217	719.250305	768.810242	724.005676	9.595192
225.648148	726.160461	761.528564	726.309082	0.420211
226.024048	731.064453	761.082703	727.052063	-13.366503
226.399902	727.349304	765.986633	722.296692	-13.077023
226.775772	717.987244	770.444885	719.621826	3.116005
227.151581	712.340149	774.382996	716.129639	6.107859
227.527374	722.593933	763.757629	716.946960	-13.718332
227.903137	726.309082	763.534729	721.479431	-12.973988
228.278870	730.321350	758.853699	721.405090	-31.249653
228.654572	725.714661	757.887695	725.714661	0.000000
229.030273	726.011902	751.869202	722.222473	-14.655160
229.405930	724.600159	751.794922	727.200745	9.562819
229.781555	717.838623	758.482239	720.587830	6.764178
230.157181	715.683838	760.934265	717.912903	4.926064
230.532761	711.745789	758.630798	711.151367	-1.267828
230.908325	714.420654	756.996094	715.683777	2.966787
231.283859	719.844727	756.104492	717.169861	-7.376953
231.659332	719.993347	760.562683	718.135742	-4.578840
232.034821	723.336975	754.246887	727.943787	14.903995
232.410263	723.262695	752.686584	725.863281	8.838348
232.785690	731.436035	751.572021	727.349304	-20.295658
233.161087	722.593994	756.401672	726.903503	12.747131
233.536469	711.745789	762.494446	733.813660	43.484642
233.911804	709.591003	764.426453	732.847717	42.411823
234.287140	719.324646	765.020813	728.612488	20.325211
234.662430	719.473206	764.575012	730.618652	24.711752
235.037704	719.324707	756.698914	733.442139	37.773193
235.412933	715.683777	756.624573	728.538147	31.397461
235.788162	717.541321	749.565918	722.222473	14.617365
236.163345	715.312317	757.887756	720.810730	12.914518
236.538513	708.550781	757.739075	719.027405	21.299019
236.913635	710.556946	759.596680	720.141907	19.545296
237.288742	709.888184	755.658630	724.600098	32.142822
237.663834	714.272034	758.407898	725.491699	25.420746
238.038879	710.408264	758.036377	726.829285	34.477581
238.413910	712.265869	758.185059	728.092285	34.465801
238.788910	713.083191	757.813477	732.624817	43.687683
239.163879	715.609558	762.568848	729.132568	28.797306
239.538834	711.522766	772.302551	720.736389	15.159025
239.913757	714.049133	779.435547	722.593994	13.068252
240.288651	719.547546	785.751282	726.383362	10.325422
240.663528	728.018066	783.967957	732.550537	8.100946
241.038361	719.919128	778.841125	724.377258	7.566155
241.413177	719.547546	769.330383	724.080078	9.104608
241.787979	716.129639	769.553284	719.473206	6.258590
242.162735	723.559875	775.720398	730.098572	12.535719
242.537476	715.535156	791.472595	728.686768	17.319008
242.912170	713.529053	799.274353	735.151123	25.216625
243.286865	709.739563	791.621155	735.151123	31.034521
243.661514	720.067627	781.664612	734.036560	22.677950
244.036148	723.708496	778.098145	725.640320	3.551822
244.410751	735.522644	779.361267	720.662048	-33.898411
244.785339	730.841553	774.605896	724.228577	-15.110420
245.159882	726.680664	777.057861	725.566101	-2.212435
245.534378	718.284424	779.881348	724.971680	10.856477
245.908890	720.290527	791.249695	722.445313	3.036655
246.283356	725.491760	786.865784	721.553711	-6.416476
246.657791	728.092285	798.011230	723.559875	-6.482377
247.032196	725.268860	804.326965	730.172852	6.203022
247.406586	724.897278	802.246399	732.550537	9.894436
247.780960	718.953125	801.280457	731.510254	15.252686
248.155289	713.974792	809.750977	734.705322	21.644764
248.529602	708.253479	819.484680	735.374023	24.382137
248.903870	720.885010	811.608643	727.200684	6.961443
249.278122	721.776672	802.692322	719.473206	-2.846751
249.652344	723.485657	791.695496	720.959290	-3.703816
250.026550	714.420715	798.977234	723.039795	10.193276
250.400711	718.210144	790.581055	722.742493	6.262666
250.774857	720.885010	795.559265	715.832336	-6.766285
251.148987	720.513428	790.209473	714.049133	-9.274981
251.523071	725.268860	802.989502	715.906738	-12.045862
251.897125	726.606262	804.549866	724.080017	-3.241119
252.271164	726.457703	817.478577	731.956055	6.040760
252.645187	715.535217	809.230957	730.395752	15.860416
253.019165	706.767517	813.094727	730.024231	21.872778
253.393112	711.745789	808.636536	729.875671	18.711676
253.767044	718.953125	809.825378	730.767273	13.000831
254.140930	723.114075	807.373352	736.488586	15.873043
254.514801	716.352539	796.227966	735.671204	24.185991
254.888657	714.792175	799.348694	739.757874	29.525457
255.262466	719.993408	802.989563	728.835388	10.653481
255.636276	719.398987	809.453857	728.761047	10.395951
256.010010	724.897278	819.559082	725.789001	0.942010
256.383759	723.336975	817.181335	735.596985	13.064195
256.757446	732.401917	832.339111	739.683594	7.286253
257.131134	731.138733	826.320557	738.940613	8.196817
257.504791	722.222473	834.939697	735.225403	11.535885
257.878418	715.832458	836.945801	730.692932	12.269890
258.252014	711.448547	849.280090	733.367920	15.903016
258.625580	718.730225	855.075684	737.083008	13.460502
258.999115	718.284424	861.317139	740.352356	15.428591
259.372650	718.507324	866.964172	734.482422	10.760769
259.746124	718.507324	891.558350	728.983948	6.054066
260.119598	715.535156	914.443542	732.476257	8.517037
260.493042	714.123474	934.208008	733.070618	8.609030
260.866425	711.076965	933.465027	733.813660	10.223883
261.239838	716.129639	921.130859	728.166687	5.871696
261.613159	719.696228	905.452942	734.333801	7.879970
261.986511	724.302917	895.942322	734.110840	5.714260
262.359802	720.439209	886.728699	739.386414	11.394109
262.733063	719.919006	877.589417	732.030457	7.681499
263.106293	710.705505	875.806152	728.463867	10.756083
263.479523	710.705566	876.177673	726.383484	9.474659
263.852692	715.832458	882.121887	737.157288	12.823923
264.225861	721.999573	877.960938	740.055115	11.576933
264.598969	722.073792	878.332458	743.993164	14.027620
264.972076	712.785950	875.806152	737.157288	14.949888
265.345154	714.643555	880.041443	733.888000	11.635242
265.718201	715.386536	886.059998	731.510254	9.447115
266.091217	719.101746	898.394226	732.922058	7.708250
266.464203	719.027405	909.911133	736.711487	9.264321
266.837158	720.959290	918.678772	728.909729	4.021070
267.210114	721.330811	930.047119	725.714661	2.100387
267.583038	722.371094	933.167786	728.240906	2.784585
267.955902	723.114075	934.876892	729.949890	3.228053
268.328766	719.250305	925.589050	733.888000	7.094012
268.701569	713.826172	931.607605	736.562805	10.440116
269.074371	717.318420	934.208069	736.191345	8.701626
269.447144	720.290588	953.378235	735.596924	6.566772
269.819885	725.789001	954.567078	734.631042	3.864899
270.192596	725.417480	978.566833	733.442139	3.169930
270.565277	728.538147	986.071289	735.002502	2.510106
270.937927	733.590759	1010.814148	727.349304	-2.251417
271.310577	725.863281	1025.451782	733.813660	2.653766
271.683136	723.411316	1054.801392	724.897400	0.448440
272.055725	712.711731	1071.148071	725.937683	3.689903
272.428284	717.244202	1079.915649	721.628113	1.208783
272.800812	713.603333	1073.154175	724.154297	2.934485
273.173279	713.826172	1068.621704	731.658875	5.026191
273.545776	714.494934	1064.980835	737.380188	6.529579
273.918152	716.055237	1064.163452	739.757996	6.809020
274.290558	716.352539	1056.659058	737.157410	6.113568
274.662964	715.015137	1049.154419	733.070618	5.403579
275.035278	721.999512	1049.674561	736.562805	4.444432
275.407593	723.337097	1056.881958	727.126465	1.136089
275.779907	723.188477	1070.702271	718.730225	-1.282899
276.152161	720.290588	1076.497803	710.705566	-2.690856
276.524384	725.937561	1088.683472	715.535156	-2.867684
276.896606	727.126465	1102.429321	726.457703	-0.178193
277.268799	723.411316	1116.918335	729.727051	1.604987
277.640930	712.860291	1125.463257	728.835388	3.871784
278.013031	711.671387	1130.590210	728.389648	3.990812
278.385162	710.036804	1136.757324	727.795227	4.161605
278.757233	708.402161	1138.837891	732.476257	5.592960
279.129272	709.516663	1138.317749	731.361633	5.094430
279.501282	710.556946	1136.831665	740.946777	7.129166
279.873230	713.231873	1147.531250	742.804260	6.809217
280.245178	710.854187	1163.060547	739.980774	6.440995
280.617126	720.810730	1195.753784	738.048889	3.629521
280.988983	728.612488	1225.400513	734.408020	1.166601
281.360870	729.429871	1246.279541	741.020996	2.242649
281.732697	717.095520	1260.174194	739.312073	4.090854
282.104492	715.609558	1279.938599	735.225403	3.475959
282.476288	721.925293	1306.539063	728.463867	1.118443
282.848053	721.999573	1327.938232	723.188416	0.196199
283.219757	718.804504	1330.687500	726.977783	1.335758
283.591461	708.699402	1322.885620	728.984070	3.302690
283.963135	710.259766	1312.111694	729.875671	3.259258
284.334747	712.637390	1313.151978	729.504150	2.808718
284.706360	716.946960	1336.334351	734.482422	2.831098
285.077942	720.439209	1372.817017	741.318298	3.200460
285.449524	719.696228	1415.689819	745.925049	3.768543
285.821014	720.439148	1436.494507	742.878601	3.133759
286.192535	721.776611	1461.757324	737.231628	2.088570
286.563995	716.278137	1475.429077	734.259460	2.368610
286.935425	716.278137	1499.577515	728.166687	1.517753
287.306824	714.272034	1509.534180	729.429749	1.906002
287.678223	721.330811	1499.429077	727.200745	0.754395
288.049561	719.176025	1473.422974	736.117004	2.246078
288.420898	719.027405	1444.519165	731.361633	1.700120
288.792145	724.377136	1444.593628	733.367859	1.248336
289.163452	729.504089	1457.373535	726.754883	-0.377706
289.534668	728.983948	1481.967773	733.219238	0.562468
289.905914	722.073792	1509.756958	737.157227	1.914911
290.277039	721.107910	1545.199341	736.562805	1.875386
290.648193	726.754883	1577.223755	733.813721	0.829994
291.019318	729.355469	1602.040894	729.652771	0.034068
291.390381	728.538269	1614.077759	734.036621	0.620904
291.761475	723.262695	1609.619751	736.711487	1.517311
292.132507	724.154297	1597.137085	735.522705	1.302249
292.503510	722.965515	1580.344604	733.293640	1.204616
292.874481	730.618652	1574.251587	726.160461	-0.528452
293.245422	724.005676	1578.486938	726.383362	0.278261
293.616364	722.445374	1605.310181	725.268860	0.319810
293.987213	711.002747	1643.799194	730.247131	2.063085
294.358093	721.107910	1689.718140	732.996338	1.227370
294.728943	721.850891	1737.197632	737.900330	1.580685
295.099731	729.949951	1782.373657	731.881836	0.183565
295.470490	722.816895	1808.602539	729.058289	0.574827
295.841248	721.479431	1826.880859	727.274963	0.524292
296.211975	712.191589	1846.125366	733.962219	1.919921
296.582642	713.454773	1891.078613	726.531982	1.110474
296.953308	708.327820	1955.870483	722.519714	1.137588
297.323883	710.705566	2002.383911	726.160461	1.196497
297.694519	707.138977	2029.430176	735.076843	2.112838
298.065063	708.847961	2017.096069	734.928162	1.993521
298.435608	715.312317	2000.377930	727.497864	0.948243
298.806122	729.504150	1950.817993	734.408020	0.401524
299.176575	737.603088	1900.737915	733.813660	-0.325794
299.547028	736.637207	1858.831177	739.386414	0.244985
299.917450	725.789001	1840.478516	734.556641	0.786554
300.287872	727.423645	1834.236938	739.312073	1.074113
300.658234	723.262695	1829.333008	739.089172	1.430874
301.028564	724.748779	1830.076172	737.825989	1.183107
301.398865	721.850891	1829.407349	735.819824	1.261239
301.769135	725.491760	1826.435181	733.219238	0.701896
302.139374	723.411316	1837.877930	734.631042	1.006735
302.509583	719.473206	1846.348267	735.819824	1.450615
302.879791	721.702332	1837.654907	726.680664	0.446106
303.249939	719.101746	1816.701538	726.383484	0.663424
303.620087	718.804504	1795.450806	725.789001	0.648727
303.990173	711.820068	1799.686157	731.361633	1.796321
304.360260	716.575500	1806.299194	731.658936	1.384152
304.730286	717.764343	1815.141235	735.374023	1.604707
305.100281	719.324707	1814.546509	737.231628	1.635004
305.470276	715.312256	1821.902710	735.448303	1.819648
305.840179	709.516785	1836.688965	730.767273	1.885292
306.210144	710.482666	1848.503296	735.374023	2.187250
306.579987	714.940857	1857.716797	732.030457	1.495446
306.949890	723.559875	1866.187134	737.380188	1.209521
307.319702	727.795166	1883.945679	738.866272	0.957583
307.689484	725.566101	1911.660278	738.569031	1.096281
308.059265	718.358704	1950.297729	734.408142	1.302779
308.429016	710.705505	1994.805054	731.064453	1.585465
308.798737	707.956299	2037.603516	735.745605	2.089976
309.168396	713.751953	2069.033691	735.225403	1.584427
309.538055	718.804504	2103.881592	739.832214	1.518162
309.907684	712.934570	2123.869141	743.918884	2.196013
310.277313	706.693176	2158.642822	745.999329	2.707129
310.646851	699.634460	2176.252441	743.027283	2.938663
311.016388	706.544617	2189.552490	737.083008	2.059220
311.385895	709.962585	2191.781738	741.763977	2.146105
311.755371	711.374268	2193.639404	745.033386	2.270789
312.124817	714.049133	2208.722900	745.553528	2.107777
312.494232	717.318542	2197.354492	736.785828	1.315325
312.863617	720.736389	2195.719971	730.990234	0.695184
313.232971	716.724060	2169.490967	730.098450	0.920615
313.602295	715.683777	2162.803711	731.138733	1.067980
313.971619	715.980957	2159.979980	727.795166	0.818159
314.340820	715.163635	2174.692139	733.219238	1.237085
314.710083	719.101746	2200.326416	742.358459	1.570100
315.079285	717.541321	2236.883545	747.782532	1.990415
315.448486	718.581604	2265.564209	743.993103	1.642649
315.817596	716.501160	2266.530029	736.934387	1.318248
316.186707	716.724121	2231.682373	733.293518	1.093720
316.555786	716.724060	2196.982910	733.665039	1.144461
316.924866	711.820068	2163.695313	735.596924	1.637665
317.293884	716.352539	2145.713867	737.677429	1.491917
317.662872	716.278137	2137.466553	734.110901	1.254778
318.031830	719.844727	2150.097900	736.042786	1.132531
318.400757	717.987122	2167.781982	734.779602	1.158266
318.769684	722.742493	2176.921143	735.596924	0.883965
319.138550	723.485535	2190.369873	736.117004	0.861109
319.507416	722.296692	2205.453369	734.036621	0.791550
319.876190	722.742493	2226.035156	739.683594	1.126933
320.244995	724.748718	2237.403564	732.624817	0.520680
320.613770	724.154297	2217.638916	739.312012	1.014923
320.982483	724.823059	2204.413086	731.807434	0.472048
321.351166	725.714661	2166.667236	735.225403	0.660032
321.719818	720.364929	2159.534424	732.922058	0.872526
322.088440	715.683777	2157.825195	730.990234	1.061370
322.457062	705.429993	2177.961182	725.863281	1.387630
322.825623	714.643555	2211.917725	728.092285	0.898214
323.194183	719.398926	2252.709961	729.206848	0.639656
323.562653	722.742493	2309.328369	735.076843	0.777415
323.931183	720.587830	2376.275391	728.241028	0.462237
324.299591	714.569336	2445.451172	728.835449	0.824211
324.668060	719.844788	2502.218506	725.491760	0.316823
325.036407	720.513489	2542.862305	734.631042	0.774690
