Jaz Data File
++++++++++++++++++++++++++++++++++++
Date: Fri Jun 04 17:04:53 2021
User: jaz
Dark Spectrum Present: Yes
Reference Spectrum Present: Yes
Processed Spectrum Present: Yes
Spectrometers: JAZA3586
Integration Time (usec): 122000 (JAZA3586)
Spectra Averaged: 10 (JAZA3586)
Boxcar Smoothing: 1 (JAZA3586)
Correct for Electrical Dark: No (JAZA3586)
Strobe/Lamp Enabled: Yes (JAZA3586)
Correct for Detector Non-linearity: No (JAZA3586)
Correct for Stray Light: No (JAZA3586)
Number of Pixels in Processed Spectrum: 2048
>>>>>Begin Processed Spectral Data<<<<<
W	D	R	S	P
191.335022	0.000000	0.000000	0.000000	0.000000
191.713211	230.487015	226.177490	224.988647	127.586403
192.091385	464.540619	461.122711	460.751190	110.869835
192.469528	699.262878	689.975098	693.318665	64.000366
192.847641	705.429993	700.228821	704.464111	18.570456
193.225739	712.637390	707.064697	713.231873	-10.667776
193.603790	720.067688	719.101746	722.148132	-215.379761
193.981842	730.247070	730.024231	732.550537	-1033.689453
194.359863	731.956055	737.157288	735.225403	62.857178
194.737854	743.324402	750.606140	744.438965	15.306276
195.115829	747.708252	749.045715	751.349121	272.221954
195.493774	751.200500	747.485352	749.194336	53.999573
195.871704	747.262451	748.451355	744.661865	-218.738129
196.249603	749.342957	748.897156	739.906494	2116.744141
196.627457	749.342957	748.599915	737.603088	1579.973755
197.005310	751.051941	736.711487	737.677429	93.264214
197.383133	746.073547	736.488586	738.197510	82.170784
197.760910	752.835144	744.438965	745.404846	88.496178
198.138687	747.039551	751.572083	748.748535	37.704853
198.516449	743.695862	751.274902	742.952881	-9.803101
198.894180	736.042725	739.906555	742.209778	159.609833
199.271866	747.039551	737.677429	744.067383	31.746735
199.649536	740.575256	732.327637	744.587585	-48.648327
200.027191	736.488586	738.049011	741.318176	309.504822
200.404816	724.154297	736.191406	736.340027	101.234688
200.782410	728.018066	753.726807	743.027161	58.381290
201.159988	731.807434	764.575012	745.627747	42.176788
201.537537	730.395752	777.132141	743.324402	27.662920
201.915070	730.172852	772.450989	740.129395	23.550098
202.292557	730.395752	769.999084	740.649597	25.891369
202.670029	734.036560	770.593506	747.262512	36.179039
203.047485	739.089111	774.828796	748.079773	25.155962
203.424911	743.027161	773.862854	747.931152	15.903621
203.802292	745.850769	771.782410	742.358459	-13.467368
204.179688	744.067383	772.079590	738.197571	-20.954479
204.557037	738.643372	773.268372	731.807556	-19.742428
204.934357	734.631042	775.125977	738.048889	8.440184
205.311661	729.727051	779.138367	742.358582	25.564045
205.688934	724.377197	775.200256	749.937317	50.292366
206.066177	722.965515	764.872253	745.330627	53.368774
206.443390	727.126465	762.494446	744.884766	50.210106
206.820587	730.098572	770.519226	740.872375	26.654203
207.197769	727.052063	775.868958	742.581360	31.811317
207.574921	730.990173	770.965027	740.055115	22.676609
207.952042	729.058289	761.602844	735.968445	21.232910
208.329147	729.355469	759.893860	736.042725	21.897865
208.706223	763.980530	802.617920	787.460266	60.769466
209.083267	763.089050	805.664368	797.788330	81.500931
209.460297	765.466614	806.630371	798.159851	79.422386
209.837280	723.337097	754.172607	741.020996	57.349136
210.214264	721.330872	751.497742	734.556641	43.842033
210.591217	715.163757	755.955872	734.928223	48.451683
210.968124	718.730225	770.147705	739.832275	41.040615
211.345016	724.525879	775.571777	737.454590	25.327620
211.721893	733.442200	771.039368	736.191406	7.312270
212.098724	733.070618	762.717468	732.847839	-0.751440
212.475555	735.968506	771.633789	739.832214	10.833248
212.852356	737.528809	771.485168	734.631042	-8.533795
213.229126	738.048889	778.023743	737.454407	-1.487141
213.605865	733.219238	765.169434	731.807434	-4.418766
213.982590	727.720886	772.228210	734.185242	14.524251
214.359283	718.655945	767.918640	734.779602	32.729954
214.735931	723.262695	760.711243	734.705322	30.555595
215.112579	714.569275	755.064209	733.813660	47.522945
215.489197	721.033630	757.590576	728.612488	20.731647
215.865799	718.433044	761.974426	726.309082	18.088625
216.242355	727.200684	759.299500	721.776672	-16.897854
216.618896	730.395752	755.732910	729.058350	-5.278423
216.995407	730.470032	754.469788	725.343201	-21.362013
217.371902	726.754883	761.677185	730.470032	10.638328
217.748367	720.513489	772.451111	727.572266	13.590874
218.124802	722.965515	772.896973	731.584656	17.261946
218.501236	726.606262	765.466614	724.228577	-6.118538
218.877609	729.949890	752.612244	729.578430	-1.639106
219.253983	726.680664	755.955872	730.321472	12.436489
219.630295	723.559875	760.042480	740.426697	46.232502
220.006592	720.959290	762.420227	730.693054	23.476954
220.382889	715.163635	757.739075	725.491760	24.258411
220.759140	715.758118	752.612305	723.782898	21.774406
221.135391	714.717957	753.652527	729.355469	37.595154
221.511581	715.089355	752.537903	732.922058	47.619209
221.887772	711.968750	755.807312	734.408142	51.186424
222.263931	716.278259	766.209656	737.528809	42.559494
222.640060	724.971680	773.565674	738.866394	28.593481
223.016159	730.990173	765.318054	740.352356	27.272823
223.392212	729.875671	756.921875	737.454590	28.022116
223.768265	723.559875	757.070496	738.271790	43.902245
224.144302	719.398926	765.763855	738.420471	41.025719
224.520294	717.169922	762.494568	741.763977	54.261990
224.896286	717.392761	766.878418	747.411072	60.660629
225.272217	722.668274	773.862793	741.689758	37.155315
225.648148	728.612488	779.658386	745.033447	32.169010
226.024048	729.801270	773.714172	735.596985	13.198206
226.399902	721.107910	764.500732	732.476257	26.198681
226.775772	712.265808	763.014648	716.501160	8.345711
227.151581	713.231750	759.819641	718.061523	10.367014
227.527374	710.333984	762.122986	718.878906	16.499491
227.903137	711.968689	767.175598	726.903503	27.052437
228.278870	711.151367	777.057861	733.962219	34.610931
228.654572	716.278259	776.834961	735.894104	32.392525
229.030273	716.724121	774.680176	737.974609	36.666553
229.405930	715.386536	767.398621	732.030334	31.999868
229.781555	717.095520	760.116882	741.020996	55.613014
230.157181	722.965515	755.732971	736.042725	39.909138
230.532761	722.668274	750.977539	742.432800	69.816460
230.908325	723.634094	763.460449	733.665039	25.186701
231.283859	719.398926	764.946533	740.500916	46.329525
231.659332	721.479431	769.479004	734.408142	26.935055
232.034821	719.176086	759.150940	736.340027	42.936844
232.410263	722.593933	756.030273	731.361755	26.222433
232.785690	722.668213	757.739075	730.767334	23.093590
233.161087	717.838623	762.123047	731.436035	30.704729
233.536469	713.231750	762.791748	729.652649	33.133373
233.911804	711.968567	762.717468	732.699219	40.849461
234.287140	725.045898	759.448059	724.674500	-1.079580
234.662430	727.497864	758.630798	730.024231	8.114774
235.037704	727.126465	763.683350	730.321472	8.739824
235.412933	720.067627	763.014648	732.699158	29.411890
235.788162	717.615723	766.655457	723.411316	11.818158
236.163345	719.324646	762.123047	726.680603	17.187458
236.538513	721.925293	765.466614	732.253235	23.719864
236.913635	725.714661	763.683350	745.850769	53.033459
237.288742	723.931458	769.999023	746.965332	50.000198
237.663834	720.959290	775.348877	747.485352	48.770477
238.038879	712.711731	774.977356	742.432800	47.732708
238.413910	716.426819	764.723633	731.584656	31.384756
238.788910	718.135803	758.928040	733.739441	38.251488
239.163879	724.897400	759.076599	732.104675	21.086729
239.538834	718.061523	760.488342	736.042786	42.381828
239.913757	723.114075	772.525391	737.157288	28.421045
240.288651	726.531982	778.989746	737.083008	20.113373
240.663528	732.104736	784.265198	741.987000	18.945889
241.038361	726.383484	771.410828	732.030457	12.541207
241.413177	718.804504	769.701843	736.042725	33.868607
241.787979	721.850891	766.729736	737.528809	34.933868
242.162735	719.919006	772.748291	744.067444	45.710323
242.537476	718.804504	764.946472	743.844543	54.267384
242.912170	713.454773	771.113586	744.438965	53.737129
243.286865	715.237976	769.850403	740.203674	45.714317
243.661514	714.272034	777.577942	741.169617	42.488266
244.036148	720.141907	782.556213	738.494690	29.404770
244.410751	716.649719	785.231140	739.683594	33.586174
244.785339	720.810730	785.825684	730.172852	14.399951
245.159882	716.724060	775.794739	736.860046	34.087955
245.534378	717.615662	774.085754	744.067383	46.841999
245.908890	714.569275	765.838196	754.915588	78.695457
246.283356	713.380432	770.667908	743.547363	52.658859
246.657791	716.946960	766.432617	737.825989	42.192081
247.032196	718.878906	782.927795	737.974609	29.814260
247.406586	715.906738	777.057800	736.934387	34.386402
247.780960	718.061523	784.785339	737.603088	29.287241
248.155289	716.352539	772.228210	729.206848	23.005198
248.529602	715.163635	773.937195	725.566101	17.699226
248.903870	714.569275	770.073425	725.343201	19.411028
249.278122	713.603333	769.627625	733.219238	35.013214
249.652344	715.683838	769.330383	736.637207	39.058189
250.026550	721.033630	773.268494	742.209900	40.540489
250.400711	731.138855	779.064026	742.581360	23.875772
250.774857	733.070618	785.379700	747.411072	27.414846
251.148987	718.432922	782.779114	742.061340	36.720772
251.523071	713.751953	781.441650	729.727051	23.600487
251.897125	718.358704	778.989746	727.943848	15.808971
252.271164	725.120300	772.451111	719.919128	-10.988977
252.645187	720.439148	767.621399	725.789001	11.338699
253.019165	709.368103	763.088928	728.686768	35.961220
253.393112	710.111084	777.132141	745.181946	52.328125
253.767044	714.494934	787.608887	754.469788	54.674725
254.140930	716.129578	795.039124	758.184998	53.295731
254.514801	715.089355	792.512756	752.017822	47.696777
254.888657	715.683777	782.927795	736.934387	31.602232
255.262466	727.869446	778.321045	732.773438	9.720191
255.636276	731.956116	777.726563	741.243958	20.292225
256.010010	735.299744	776.834961	752.389343	41.144844
256.383759	732.401855	776.834961	756.401672	54.013367
256.757446	729.132568	776.612000	744.959167	33.333591
257.131134	722.891113	785.454041	753.578125	49.049835
257.504791	720.810730	780.104248	743.918762	38.972275
257.878418	715.609558	773.416992	741.318176	44.472858
258.252014	720.884949	769.999084	730.470032	19.515936
258.625580	722.668274	783.893738	741.318176	30.461023
258.999115	729.132629	794.296082	747.113831	27.593998
259.372650	721.850891	804.401306	743.993164	26.822727
259.746124	716.278259	798.308411	738.866211	27.536158
260.119598	715.460938	806.927551	739.683594	26.482512
260.493042	721.925232	803.955383	744.884766	27.989140
260.866425	725.640320	810.865540	748.451355	26.765593
261.239838	724.005676	805.590088	745.107666	25.865223
261.613159	722.519714	808.562195	735.596985	15.198621
261.986511	722.742615	802.469421	727.200745	5.591758
262.359802	721.999512	790.878113	725.045898	4.422835
262.733063	721.405090	777.206482	727.795166	11.451463
263.106293	714.494934	778.246643	733.962219	30.536098
263.479523	716.649719	788.723328	733.962219	24.020582
263.852692	715.237976	794.296082	737.825989	28.571407
264.225861	715.163635	787.311584	729.281250	19.567591
264.598969	716.278137	779.955627	729.727051	21.120358
264.972076	709.293762	782.556213	722.445496	17.951534
265.345154	710.408386	798.085510	730.321472	22.711838
265.718201	712.563049	803.063782	738.197571	28.325209
266.091217	728.018066	812.500244	749.417297	25.329876
266.464203	736.711487	818.815979	746.147949	11.493236
266.837158	738.940613	817.404297	741.764099	3.598463
267.210114	728.835388	811.905823	737.751770	10.733521
267.583038	727.275085	802.246521	737.380188	13.478603
267.955902	718.433044	812.946045	739.089172	21.855330
268.328766	718.581604	820.153503	737.751709	18.873434
268.701569	711.002747	818.593079	742.655701	29.419888
269.074371	717.095520	810.642761	743.473083	28.197052
269.447144	718.804504	811.237061	745.107727	28.456665
269.819885	719.844727	814.580750	738.866272	20.078472
270.192596	719.027405	823.719910	735.299805	15.543042
270.565277	719.547546	835.831238	742.507141	19.744467
270.937927	722.816833	840.512390	743.324402	17.424250
271.310577	718.507324	838.803467	742.655762	20.074158
271.683136	713.900574	832.339111	738.791992	21.016317
272.055725	712.934570	836.648682	746.742371	27.327360
272.428284	712.414551	837.317383	744.141785	25.401533
272.800812	721.628113	837.317383	739.014832	15.028809
273.173279	725.268860	842.369934	738.123230	10.977159
273.545776	732.773438	850.394714	743.844543	9.412503
273.918152	732.476257	854.109802	752.612305	16.554682
274.290558	729.652649	848.834290	756.996094	22.942665
274.662964	729.206848	849.502991	759.819641	25.447859
275.035278	716.872620	849.354431	758.259277	31.239502
275.407593	718.804504	855.224365	749.045715	22.167747
275.779907	714.272034	855.298645	747.633972	23.656485
276.152161	721.330750	860.202637	739.312073	12.948137
276.524384	721.256531	861.242859	732.624817	8.120997
276.896606	718.284363	859.905334	726.383362	5.718785
277.268799	717.467102	863.546204	732.550537	10.325525
277.640930	711.225647	860.351135	739.312073	18.834087
278.013031	717.690125	862.134460	747.485352	20.627480
278.385162	719.919128	863.471985	745.479187	17.805328
278.757233	721.851013	868.747375	742.284180	13.909920
279.129272	720.364929	873.502747	735.671204	9.995098
279.501282	718.135742	867.038513	734.259460	10.828353
279.873230	719.696106	866.295593	734.036621	9.782104
280.245178	719.770508	872.091064	728.389587	5.658514
280.617126	720.587830	878.629700	725.045959	2.820854
280.988983	720.736389	893.490234	730.247131	5.505372
281.360870	723.559875	906.418884	744.736145	11.580654
281.732697	721.479309	909.391052	743.250183	11.585691
282.104492	723.411316	910.282654	736.414307	6.958259
282.476288	727.720886	907.533447	729.578430	1.033045
282.848053	730.470032	919.198975	737.826111	3.897695
283.219757	730.247131	917.341370	740.649597	5.560014
283.591461	724.302917	922.022461	739.312073	7.591134
283.963135	720.736389	911.991516	729.578430	4.623166
284.334747	722.742615	922.988464	736.785828	7.012986
284.706360	712.860352	934.505371	746.965149	15.387126
285.077942	721.553711	951.074890	759.745300	16.639679
285.449524	714.569275	948.028503	753.726807	16.772749
285.821014	715.683777	947.656982	745.404846	12.812285
286.192535	714.940735	953.526855	741.466858	11.118050
286.563995	713.380432	965.192383	743.770264	12.068462
286.935425	714.494934	965.043762	740.203674	10.260970
287.306824	709.888184	965.117981	743.250183	13.071358
287.678223	710.705566	962.591736	740.500977	11.828918
288.049561	718.581604	964.523621	743.695984	10.211504
288.420898	720.662109	968.758789	738.494812	7.187804
288.792145	726.680664	973.365540	744.290344	7.138533
289.163452	722.816895	974.182922	742.507080	7.833272
289.534668	723.857117	977.600891	742.581360	7.379193
289.905914	717.987122	984.956848	748.451233	11.411074
290.277039	717.764343	997.811218	757.962097	14.353938
290.648193	722.148193	1011.260010	766.952637	15.497272
291.019318	729.727051	1023.742859	759.745361	10.209761
291.390381	732.253357	1021.736633	749.937317	6.108802
291.761475	727.497986	1015.941101	742.655762	5.255031
292.132507	725.714600	1013.711975	736.637207	3.792607
292.503510	723.559875	1017.129944	736.711487	4.479888
292.874481	733.962219	1020.993713	743.770203	3.417041
293.245422	733.516418	1020.547913	742.432800	3.106412
293.616364	734.408142	1026.120483	739.980774	1.910317
293.987213	719.250305	1029.835693	736.711487	5.622023
294.358093	715.832458	1049.748779	734.928284	5.718746
294.728943	709.888184	1070.182007	739.683594	8.269753
295.099731	711.448547	1094.033203	736.934387	6.661490
295.470490	715.089355	1101.240723	749.863098	9.005210
295.841248	720.959290	1111.345825	745.850769	6.376111
296.211975	716.575439	1125.389038	737.231628	5.052716
296.582642	713.900574	1131.779053	728.241028	3.431728
296.953308	716.575439	1146.862427	733.367920	3.902623
297.323883	719.176025	1147.382690	738.569031	4.528889
297.694519	716.649719	1166.181274	738.420410	4.842973
298.065063	711.597168	1170.639404	732.179016	4.483650
298.435608	715.683777	1169.450562	734.185242	4.077307
298.806122	714.569275	1152.063599	733.813660	4.398774
299.176575	716.278137	1129.327026	743.547363	6.601937
299.547028	709.442383	1123.531494	738.791992	7.087752
299.917450	708.327820	1130.664551	737.603210	6.931765
300.287872	705.058411	1136.311523	728.463928	5.427327
300.658234	711.894348	1133.933960	732.401917	4.859157
301.028564	713.454773	1128.732544	735.745544	5.367678
301.398865	720.141907	1118.776001	735.745605	3.914291
301.769135	721.405090	1120.484985	738.866211	4.375345
302.139374	727.126404	1119.147583	742.804260	3.999237
302.509583	728.983948	1130.515869	750.160339	5.273900
302.879791	727.572266	1142.032837	751.274719	5.718868
303.249939	731.436035	1147.679810	752.612305	5.087468
303.620087	722.371094	1145.450806	751.051941	6.779065
303.990173	721.850891	1131.704712	745.702148	5.819455
304.360260	717.021240	1141.364136	751.720642	8.177208
304.730286	722.296692	1152.286621	752.909485	7.119421
305.100281	726.531982	1157.116333	761.231262	8.058649
305.470276	729.281189	1153.624023	748.674133	4.570112
305.840179	733.293518	1157.859253	740.649475	1.732584
306.210144	727.943787	1163.506348	730.172852	0.511767
306.579987	733.590759	1178.441284	736.562805	0.668100
306.949890	733.070618	1179.109985	746.816711	3.081812
307.319702	735.894226	1200.286133	751.126282	3.280000
307.689484	729.652771	1199.543091	742.581360	2.751406
308.059265	731.213074	1214.329224	742.729980	2.383879
308.429016	730.172852	1223.171265	740.055115	2.004522
308.798737	728.315247	1238.477661	742.061218	2.694431
309.168396	722.593933	1257.053345	742.209900	3.670244
309.538055	726.011902	1273.994507	744.810547	3.430519
309.907684	725.937561	1290.266724	744.141785	3.225816
310.277313	719.844727	1300.297485	744.959167	4.326698
310.646851	711.374207	1314.340698	739.163513	4.608765
311.016388	709.516663	1327.418091	746.667969	6.012497
311.385895	717.764343	1336.111450	745.776367	4.530146
311.755371	716.575439	1333.436646	750.754700	5.540835
312.124817	712.860291	1330.167358	743.027161	4.886850
312.494232	712.563049	1334.328247	740.352295	4.469411
312.863617	719.027344	1329.795776	741.020996	3.600981
313.232971	727.720764	1324.000244	744.884766	2.878516
313.602295	725.491760	1318.947632	739.014832	2.278699
313.971619	729.875671	1328.235352	738.271790	1.403189
314.340820	730.767273	1338.860718	744.364563	2.236053
314.710083	739.460693	1354.092651	752.686523	2.151829
315.079285	727.943665	1370.959473	752.389343	3.801723
315.448486	730.098572	1393.918945	745.479187	2.316984
315.817596	719.696106	1393.919067	737.231628	2.600849
316.186707	721.107910	1373.560181	733.962219	1.970153
316.555786	713.083191	1353.498413	734.333801	3.318255
316.924866	712.042969	1334.402466	734.482422	3.605545
317.293884	721.405090	1337.523071	738.494690	2.773754
317.662872	726.086182	1336.037231	747.856873	3.569252
318.031830	722.073792	1354.464355	750.085938	4.429564
318.400757	719.919128	1366.575684	748.302673	4.389277
318.769684	716.203918	1378.538452	741.541199	3.825451
319.138550	723.559875	1372.742798	741.095398	2.701168
319.507416	713.380432	1379.875854	740.946716	4.136005
319.876190	706.916016	1375.714844	746.890930	5.977121
320.244995	711.076965	1395.479492	755.510071	6.492248
320.613770	722.445313	1386.563110	760.042542	5.661229
320.982483	726.977844	1387.083130	752.389343	3.849613
321.351166	716.278259	1376.160767	745.033386	4.357613
321.719818	709.070801	1377.498169	736.562805	4.112938
322.088440	707.882019	1390.501099	737.900330	4.397520
322.457062	715.980957	1405.733276	738.271790	3.231715
322.825623	721.107910	1423.194336	746.965271	3.682931
323.194183	733.665039	1440.135376	746.667969	1.840549
323.562653	735.225403	1464.432251	742.432800	0.988389
323.931183	732.922058	1502.847046	740.575195	0.994011
324.299591	718.507324	1541.335815	740.575195	2.681953
324.668060	715.312317	1560.505859	743.250183	3.305499
325.036407	716.203918	1577.818359	743.547363	3.173513
