Jaz Data File
++++++++++++++++++++++++++++++++++++
Date: Fri Jun 04 17:04:47 2021
User: jaz
Dark Spectrum Present: Yes
Reference Spectrum Present: Yes
Processed Spectrum Present: Yes
Spectrometers: JAZA3586
Integration Time (usec): 122000 (JAZA3586)
Spectra Averaged: 10 (JAZA3586)
Boxcar Smoothing: 1 (JAZA3586)
Correct for Electrical Dark: No (JAZA3586)
Strobe/Lamp Enabled: Yes (JAZA3586)
Correct for Detector Non-linearity: No (JAZA3586)
Correct for Stray Light: No (JAZA3586)
Number of Pixels in Processed Spectrum: 2048
>>>>>Begin Processed Spectral Data<<<<<
W	D	R	S	P
191.335022	0.000000	0.000000	0.000000	0.000000
191.713211	230.487015	226.177490	223.056763	172.414658
192.091385	464.540619	461.122711	454.732666	286.957794
192.469528	699.262878	689.975098	688.786316	112.799416
192.847641	705.429993	700.228821	705.355774	1.426962
193.225739	712.637390	707.064697	721.925232	-166.667038
193.603790	720.067688	719.101746	737.380188	-1792.291138
193.981842	730.247070	730.024231	742.729980	-5601.752930
194.359863	731.956055	737.157288	744.067444	232.856125
194.737854	743.324402	750.606140	746.370850	41.836819
195.115829	747.708252	749.045715	752.389343	349.997711
195.493774	751.200500	747.485352	748.451355	73.998260
195.871704	747.262451	748.451355	740.203674	-593.721436
196.249603	749.342957	748.897156	735.671204	3066.785400
196.627457	749.342957	748.599915	734.259460	2029.965454
197.005310	751.051941	736.711487	737.231628	96.372910
197.383133	746.073547	736.488586	738.569031	78.294701
197.760910	752.835144	744.438965	744.290344	101.770096
198.138687	747.039551	751.572083	743.993164	-67.211594
198.516449	743.695862	751.274902	740.278015	-45.096035
198.894180	736.042725	739.906555	729.504089	-169.226761
199.271866	747.039551	737.677429	724.674500	238.888702
199.649536	740.575256	732.327637	725.640381	181.081039
200.027191	736.488586	738.049011	728.092346	-538.073975
200.404816	724.154297	736.191406	729.801331	46.913536
200.782410	728.018066	753.726807	733.442200	21.098402
201.159988	731.807434	764.575012	739.534973	23.582882
201.537537	730.395752	777.132141	746.668030	34.817146
201.915070	730.172852	772.450989	742.655701	29.525541
202.292557	730.395752	769.999084	739.906433	24.014851
202.670029	734.036560	770.593506	742.655579	23.576965
203.047485	739.089111	774.828796	739.386414	0.831855
203.424911	743.027161	773.862854	742.729980	-0.963754
203.802292	745.850769	771.782410	737.008728	-34.097500
204.179688	744.067383	772.079590	744.661865	2.122226
204.557037	738.643372	773.268372	746.370850	22.317627
204.934357	734.631042	775.125977	743.473083	21.834930
205.311661	729.727051	779.138367	741.541199	23.909801
205.688934	724.377197	775.200256	742.135559	34.941544
206.066177	722.965515	764.872253	741.243958	43.616955
206.443390	727.126465	762.494446	740.946777	39.075775
206.820587	730.098572	770.519226	736.562805	15.992402
207.197769	727.052063	775.868958	740.055115	26.636375
207.574921	730.990173	770.965027	739.460632	21.189468
207.952042	729.058289	761.602844	742.209778	40.410721
208.329147	729.355469	759.893860	744.290344	48.905247
208.706223	763.980530	802.617920	781.367371	45.000038
209.083267	763.089050	805.664368	783.224915	47.294689
209.460297	765.466614	806.630371	782.481934	41.335682
209.837280	723.337097	754.172607	740.203674	54.698551
210.214264	721.330872	751.497742	729.429749	26.846926
210.591217	715.163757	755.955872	725.120300	24.408009
210.968124	718.730225	770.147705	729.949890	21.820723
211.345016	724.525879	775.571777	731.138855	12.954961
211.721893	733.442200	771.039368	731.213074	-5.928973
212.098724	733.070618	762.717468	726.606262	-21.804527
212.475555	735.968506	771.633789	728.686768	-20.416880
212.852356	737.528809	771.485168	734.185242	-9.846659
213.229126	738.048889	778.023743	741.838379	9.479684
213.605865	733.219238	765.169434	744.661804	35.813759
213.982590	727.720886	772.228210	737.305847	21.535694
214.359283	718.655945	767.918640	732.847717	28.808355
214.735931	723.262695	760.711243	732.030334	23.412495
215.112579	714.569275	755.064209	734.631042	49.541424
215.489197	721.033630	757.590576	737.454529	44.918682
215.865799	718.433044	761.974426	734.705322	37.371983
216.242355	727.200684	759.299500	734.631042	23.148390
216.618896	730.395752	755.732910	738.271912	31.085411
216.995407	730.470032	754.469788	735.522644	21.052765
217.371902	726.754883	761.677185	736.191406	27.021481
217.748367	720.513489	772.451111	733.665039	25.321817
218.124802	722.965515	772.896973	738.271912	30.654816
218.501236	726.606262	765.466614	736.562805	25.621340
218.877609	729.949890	752.612244	731.287354	5.901697
219.253983	726.680664	755.955872	735.299744	29.441566
219.630295	723.559875	760.042480	739.683594	44.195633
220.006592	720.959290	762.420227	743.101563	53.405144
220.382889	715.163635	757.739075	733.739441	43.630333
220.759140	715.758118	752.612305	731.658875	43.145050
221.135391	714.717957	753.652527	725.045959	26.526562
221.511581	715.089355	752.537903	730.767273	41.865223
221.887772	711.968750	755.807312	723.559875	26.440479
222.263931	716.278259	766.209656	734.853821	37.202168
222.640060	724.971680	773.565674	736.785828	24.311951
223.016159	730.990173	765.318054	742.209778	32.683651
223.392212	729.875671	756.921875	733.367859	12.911932
223.768265	723.559875	757.070496	726.309082	8.203986
224.144302	719.398926	765.763855	720.141907	1.602463
224.520294	717.169922	762.494568	718.953125	3.934290
224.896286	717.392761	766.878418	729.875671	25.225309
225.272217	722.668274	773.862793	735.299805	24.673599
225.648148	728.612488	779.658386	736.785828	16.011747
226.024048	729.801270	773.714172	727.572266	-5.075966
226.399902	721.107910	764.500732	733.442200	28.424723
226.775772	712.265808	763.014648	734.259521	43.338356
227.151581	713.231750	759.819641	741.466858	60.606110
227.527374	710.333984	762.122986	734.482422	46.628506
227.903137	711.968689	767.175598	731.733154	35.800709
228.278870	711.151367	777.057861	727.795166	25.253654
228.654572	716.278259	776.834961	731.881836	25.766886
229.030273	716.724121	774.680176	739.089111	38.589565
229.405930	715.386536	767.398621	735.819824	39.285656
229.781555	717.095520	760.116882	734.928223	41.450809
230.157181	722.965515	755.732971	730.693054	23.582970
230.532761	722.668274	750.977539	729.578430	24.409521
230.908325	723.634094	763.460449	734.928223	28.358429
231.283859	719.398926	764.946533	739.683594	44.535091
231.659332	721.479431	769.479004	745.999329	51.083576
232.034821	719.176086	759.150940	739.757813	51.486683
232.410263	722.593933	756.030273	726.829163	12.666546
232.785690	722.668213	757.739075	725.789001	8.898522
233.161087	717.838623	762.123047	722.742493	11.073577
233.536469	713.231750	762.791748	736.637207	47.226509
233.911804	711.968567	762.717468	743.324402	61.786236
234.287140	725.045898	759.448059	748.525574	68.250580
234.662430	727.497864	758.630798	741.169617	43.914116
235.037704	727.126465	763.683350	733.665039	17.886026
235.412933	720.067627	763.014648	729.504089	21.972332
235.788162	717.615723	766.655457	731.733215	28.787865
236.163345	719.324646	762.123047	738.866272	45.659710
236.538513	721.925293	765.466614	738.049011	37.030842
236.913635	725.714661	763.683350	738.420410	33.463757
237.288742	723.931458	769.999023	733.293640	20.322720
237.663834	720.959290	775.348877	741.541199	37.841637
238.038879	712.711731	774.977356	744.736145	51.431931
238.413910	716.426819	764.723633	741.021057	50.923107
238.788910	718.135803	758.928040	743.398743	61.930756
239.163879	724.897400	759.076599	738.717590	40.434505
239.538834	718.061523	760.488342	741.763977	55.866676
239.913757	723.114075	772.525391	735.225403	24.511244
240.288651	726.531982	778.989746	739.312073	24.362629
240.663528	732.104736	784.265198	737.454529	10.256413
241.038361	726.383484	771.410828	740.872498	32.178257
241.413177	718.804504	769.701843	739.906555	41.460026
241.787979	721.850891	766.729736	734.036621	27.152504
242.162735	719.919006	772.748291	730.693054	20.394083
242.537476	718.804504	764.946472	726.532043	16.747311
242.912170	713.454773	771.113586	736.414246	39.819538
243.286865	715.237976	769.850403	738.271790	42.176872
243.661514	714.272034	777.577942	739.014893	39.084599
244.036148	720.141907	782.556213	729.206970	14.524015
244.410751	716.649719	785.231140	723.262695	9.642518
244.785339	720.810730	785.825684	728.018066	11.085660
245.159882	716.724060	775.794739	737.305908	34.842751
245.534378	717.615662	774.085754	745.181946	48.815723
245.908890	714.569275	765.838196	747.708313	64.637672
246.283356	713.380432	770.667908	751.646301	66.796219
246.657791	716.946960	766.432617	751.646301	70.119995
247.032196	718.878906	782.927795	750.234558	48.955811
247.406586	715.906738	777.057800	738.643250	37.180893
247.780960	718.061523	784.785339	732.104675	21.046686
248.155289	716.352539	772.228210	731.064453	26.329731
248.529602	715.163635	773.937195	739.832214	41.972240
248.903870	714.569275	770.073425	745.330627	55.421715
249.278122	713.603333	769.627625	740.798096	48.541019
249.652344	715.683838	769.330383	742.209961	49.446098
250.026550	721.033630	773.268494	737.826111	32.148033
250.400711	731.138855	779.064026	745.627747	30.232321
250.774857	733.070618	785.379700	744.587585	22.017147
251.148987	718.432922	782.779114	744.216003	40.069321
251.523071	713.751953	781.441650	738.494690	36.553181
251.897125	718.358704	778.989746	744.587585	43.259823
252.271164	725.120300	772.451111	746.147949	44.426979
252.645187	720.439148	767.621399	744.884766	51.811047
253.019165	709.368103	763.088928	735.225403	48.132729
253.393112	710.111084	777.132141	745.850769	53.326054
253.767044	714.494934	787.608887	745.627747	42.581219
254.140930	716.129578	795.039124	744.959045	36.534828
254.514801	715.089355	792.512756	732.773438	22.840746
254.888657	715.683777	782.927795	731.361633	23.314871
255.262466	727.869446	778.321045	733.665039	11.487432
255.636276	731.956116	777.726563	744.959167	28.409275
256.010010	735.299744	776.834961	747.113953	28.443836
256.383759	732.401855	776.834961	742.507141	22.742695
256.757446	729.132568	776.612000	736.414246	15.336488
257.131134	722.891113	785.454041	741.838379	30.285133
257.504791	720.810730	780.104248	746.816650	43.859634
257.878418	715.609558	773.416992	746.667969	53.727364
258.252014	720.884949	769.999084	739.089172	37.065140
258.625580	722.668274	783.893738	743.324402	33.737804
258.999115	729.132629	794.296082	735.374023	9.578059
259.372650	721.850891	804.401306	738.197510	19.801983
259.746124	716.278259	798.308411	732.327637	19.565218
260.119598	715.460938	806.927551	744.959167	32.250271
260.493042	721.925232	803.955383	746.073547	29.438341
260.866425	725.640320	810.865540	743.472961	20.924137
261.239838	724.005676	805.590088	732.179016	10.018262
261.613159	722.519714	808.562195	728.389587	6.822064
261.986511	722.742615	802.469421	733.293518	13.233822
262.359802	721.999512	790.878113	735.819824	20.064741
262.733063	721.405090	777.206482	742.581360	37.949356
263.106293	714.494934	778.246643	737.454529	36.014084
263.479523	716.649719	788.723328	746.147949	40.927921
263.852692	715.237976	794.296082	739.609314	30.827122
264.225861	715.163635	787.311584	740.872375	35.633362
264.598969	716.278137	779.955627	735.076843	29.521744
264.972076	709.293762	782.556213	732.996338	32.352966
265.345154	710.408386	798.085510	731.956116	24.576227
265.718201	712.563049	803.063782	730.841553	20.197079
266.091217	728.018066	812.500244	743.101563	17.854057
266.464203	736.711487	818.815979	748.079773	13.846120
266.837158	738.940613	817.404297	746.296570	9.374983
267.210114	728.835388	811.905823	733.665039	5.813923
267.583038	727.275085	802.246521	732.996399	7.631324
267.955902	718.433044	812.946045	731.361755	13.679294
268.328766	718.581604	820.153503	737.157410	18.288332
268.701569	711.002747	818.593079	733.516418	20.925367
269.074371	717.095520	810.642761	732.179016	16.123934
269.447144	718.804504	811.237061	732.699036	15.032075
269.819885	719.844727	814.580750	734.705261	15.686255
270.192596	719.027405	823.719910	739.460632	19.517374
270.565277	719.547546	835.831238	741.987000	19.297163
270.937927	722.816833	840.512390	739.534912	14.204512
271.310577	718.507324	838.803467	740.278015	18.097580
271.683136	713.900574	832.339111	735.968445	18.632339
272.055725	712.934570	836.648682	732.922058	16.156191
272.428284	712.414551	837.317383	736.934387	19.631130
272.800812	721.628113	837.317383	740.203674	16.056425
273.173279	725.268860	842.369934	745.404846	17.195391
273.545776	732.773438	850.394714	736.860107	3.474431
273.918152	732.476257	854.109802	734.110901	1.343909
274.290558	729.652649	848.834290	734.779602	4.301798
274.662964	729.206848	849.502991	743.547363	11.921010
275.035278	716.872620	849.354431	742.284180	19.181170
275.407593	718.804504	855.224365	739.609192	15.250483
275.779907	714.272034	855.298645	740.872375	18.861931
276.152161	721.330750	860.202637	745.404968	17.335560
276.524384	721.256531	861.242859	748.154114	19.214436
276.896606	718.284363	859.905334	741.169617	16.159510
277.268799	717.467102	863.546204	739.609192	15.157602
277.640930	711.225647	860.351135	736.265625	16.791212
278.013031	717.690125	862.134460	733.293457	10.802316
278.385162	719.919128	863.471985	728.240967	5.797055
278.757233	721.851013	868.747375	732.847717	7.486029
279.129272	720.364929	873.502747	740.500977	13.148972
279.501282	718.135742	867.038513	749.417297	21.008041
279.873230	719.696106	866.295593	747.931152	19.259991
280.245178	719.770508	872.091064	742.655701	15.024363
280.617126	720.587830	878.629700	739.237732	11.800609
280.988983	720.736389	893.490234	733.144958	7.182804
281.360870	723.559875	906.418884	739.980774	8.980087
281.732697	721.479309	909.391052	740.352356	10.043570
282.104492	723.411316	910.282654	745.553528	11.848907
282.476288	727.720886	907.533447	740.426697	7.066142
282.848053	730.470032	919.198975	749.640137	10.157480
283.219757	730.247131	917.341370	755.732910	13.621894
283.591461	724.302917	922.022461	758.556458	17.324306
283.963135	720.736389	911.991516	749.491516	15.034958
284.334747	722.742615	922.988464	742.432800	9.833006
284.706360	712.860352	934.505371	744.736145	14.381462
285.077942	721.553711	951.074890	751.274719	12.949136
285.449524	714.569275	948.028503	755.807312	17.663914
285.821014	715.683777	947.656982	750.903320	15.182591
286.192535	714.940735	953.526855	741.987000	11.336060
286.563995	713.380432	965.192383	742.878601	11.714364
286.935425	714.494934	965.043762	743.398682	11.536174
287.306824	709.888184	965.117981	738.866211	11.353701
287.678223	710.705566	962.591736	730.172852	7.728604
288.049561	718.581604	964.523621	729.875671	4.592167
288.420898	720.662109	968.758789	735.076843	5.810128
288.792145	726.680664	973.365540	744.364685	7.168669
289.163452	722.816895	974.182922	741.541199	7.449019
289.534668	723.857117	977.600891	738.346130	5.710096
289.905914	717.987122	984.956848	739.014893	7.876463
290.277039	717.764343	997.811218	746.445129	10.241424
290.648193	722.148193	1011.260010	761.305664	13.544058
291.019318	729.727051	1023.742859	752.092102	7.606751
291.390381	732.253357	1021.736633	744.513245	4.235094
291.761475	727.497986	1015.941101	735.671204	2.833563
292.132507	725.714600	1013.711975	730.470032	1.651207
292.503510	723.559875	1017.129944	731.064453	2.556316
292.874481	733.962219	1020.993713	733.665100	-0.103514
293.245422	733.516418	1020.547913	743.175781	3.365262
293.616364	734.408142	1026.120483	746.519348	4.151763
293.987213	719.250305	1029.835693	745.256348	8.373235
294.358093	715.832458	1049.748779	746.370850	9.145522
294.728943	709.888184	1070.182007	744.438965	9.589612
295.099731	711.448547	1094.033203	737.751770	6.875138
295.470490	715.089355	1101.240723	735.968445	5.406970
295.841248	720.959290	1111.345825	739.534973	4.758280
296.211975	716.575439	1125.389038	746.296570	7.270093
296.582642	713.900574	1131.779053	744.513367	7.325765
296.953308	716.575439	1146.862427	742.878601	6.112935
297.323883	719.176025	1147.382690	736.340027	4.008345
297.694519	716.649719	1166.181274	734.333801	3.933891
298.065063	711.597168	1170.639404	734.259460	4.936864
298.435608	715.683777	1169.450562	730.098572	3.176697
298.806122	714.569275	1152.063599	732.996338	4.211955
299.176575	716.278137	1129.327026	735.448303	4.641137
299.547028	709.442383	1123.531494	741.095276	7.643981
299.917450	708.327820	1130.664551	743.398743	8.304019
300.287872	705.058411	1136.311523	741.912659	8.545851
300.658234	711.894348	1133.933960	741.318298	6.971846
301.028564	713.454773	1128.732544	744.290344	7.425288
301.398865	720.141907	1118.776001	743.918884	5.964612
301.769135	721.405090	1120.484985	746.296570	6.237217
302.139374	727.126404	1119.147583	751.497742	6.216842
302.509583	728.983948	1130.515869	755.955872	6.717255
302.879791	727.572266	1142.032837	754.246887	6.435986
303.249939	731.436035	1147.679810	742.581360	2.677596
303.620087	722.371094	1145.450806	735.299805	3.055857
303.990173	721.850891	1131.704712	732.922058	2.701248
304.360260	717.021240	1141.364136	740.129395	5.445632
304.730286	722.296692	1152.286621	739.683594	4.043560
305.100281	726.531982	1157.116333	745.925049	4.503895
305.470276	729.281189	1153.624023	741.615479	2.906680
305.840179	733.293518	1157.859253	742.061279	2.065113
306.210144	727.943787	1163.506348	731.807434	0.887048
306.579987	733.590759	1178.441284	737.008728	0.768341
306.949890	733.070618	1179.109985	734.259460	0.266533
307.319702	735.894226	1200.286133	744.364685	1.823989
307.689484	729.652771	1199.543091	737.603210	1.691978
308.059265	731.213074	1214.329224	739.460693	1.707171
308.429016	730.172852	1223.171265	741.020996	2.200442
308.798737	728.315247	1238.477661	746.147949	3.495495
309.168396	722.593933	1257.053345	752.983704	5.686077
309.538055	726.011902	1273.994507	741.243958	2.779660
309.907684	725.937561	1290.266724	737.825989	2.106648
310.277313	719.844727	1300.297485	728.315247	1.459295
310.646851	711.374207	1314.340698	738.123230	4.436237
311.016388	709.516663	1327.418091	742.209961	5.291022
311.385895	717.764343	1336.111450	754.321228	5.912033
311.755371	716.575439	1333.436646	750.606140	5.516752
312.124817	712.860291	1330.167358	753.429504	6.571967
312.494232	712.563049	1334.328247	748.822815	5.831746
312.863617	719.027344	1329.795776	756.698914	6.167897
313.232971	727.720764	1324.000244	748.674255	3.514039
313.602295	725.491760	1318.947632	748.154114	3.818709
313.971619	729.875671	1328.235352	738.123230	1.378361
314.340820	730.767273	1338.860718	736.488586	0.940861
314.710083	739.460693	1354.092651	736.637207	-0.459378
315.079285	727.943665	1370.959473	746.965271	2.958186
315.448486	730.098572	1393.918945	758.630798	4.298185
315.817596	719.696106	1393.919067	761.900085	6.259647
316.186707	721.107910	1373.560181	749.640137	4.373075
316.555786	713.083191	1353.498413	744.513245	4.907762
316.924866	712.042969	1334.402466	743.250061	5.014319
317.293884	721.405090	1337.523071	748.005432	4.317410
317.662872	726.086182	1336.037231	749.788757	3.885980
318.031830	722.073792	1354.464355	745.479187	3.701098
318.400757	719.919128	1366.575684	752.017822	4.963793
318.769684	716.203918	1378.538452	747.633972	4.745344
319.138550	723.559875	1372.742798	745.553467	3.387888
319.507416	713.380432	1379.875854	740.872375	4.124851
319.876190	706.916016	1375.714844	735.745605	4.310652
320.244995	711.076965	1395.479492	733.888000	3.332985
320.613770	722.445313	1386.563110	735.076843	1.902002
320.982483	726.977844	1387.083130	732.550476	0.844203
321.351166	716.278259	1376.160767	730.990173	2.229475
321.719818	709.070801	1377.498169	723.114014	2.100933
322.088440	707.882019	1390.501099	727.275085	2.840979
322.457062	715.980957	1405.733276	729.429871	1.949818
322.825623	721.107910	1423.194336	733.590759	1.777965
323.194183	733.665039	1440.135376	729.355530	-0.610006
323.562653	735.225403	1464.432251	734.928223	-0.040754
323.931183	732.922058	1502.847046	740.352356	0.965068
324.299591	718.507324	1541.335815	749.863098	3.810730
324.668060	715.312317	1560.505859	745.107727	3.525277
325.036407	716.203918	1577.818359	743.027161	3.113137
