Jaz Data File
++++++++++++++++++++++++++++++++++++
Date: Fri Jun 04 16:56:20 2021
User: jaz
Dark Spectrum Present: Yes
Reference Spectrum Present: Yes
Processed Spectrum Present: Yes
Spectrometers: JAZA3586
Integration Time (usec): 26900 (JAZA3586)
Spectra Averaged: 10 (JAZA3586)
Boxcar Smoothing: 1 (JAZA3586)
Correct for Electrical Dark: No (JAZA3586)
Strobe/Lamp Enabled: Yes (JAZA3586)
Correct for Detector Non-linearity: No (JAZA3586)
Correct for Stray Light: No (JAZA3586)
Number of Pixels in Processed Spectrum: 2048
>>>>>Begin Processed Spectral Data<<<<<
W	D	R	S	P
191.335022	0.000000	0.000000	0.000000	0.000000
191.713211	231.824478	223.576904	231.973099	-1.801992
192.091385	465.580902	454.658356	464.020508	14.285994
192.469528	703.795410	697.033875	700.674622	46.155025
192.847641	715.832458	712.340149	702.829407	372.333893
193.225739	725.120300	725.268860	712.786072	-8302.546875
193.603790	738.123230	728.761047	722.222473	169.840271
193.981842	739.089172	738.197571	734.482361	516.689514
194.359863	739.460632	743.324463	738.717590	-19.230709
194.737854	732.624817	745.702148	743.101563	80.113785
195.115829	740.278015	744.216003	745.181946	124.528831
195.493774	746.890930	744.884766	741.541199	266.664642
195.871704	745.627747	747.856873	736.711426	-399.991791
196.249603	741.912598	747.485352	734.333801	-135.997330
196.627457	744.661865	747.782532	735.002502	-309.528839
197.005310	745.107727	743.175781	733.887939	580.750610
197.383133	743.324463	743.398743	736.265625	-9503.040039
197.760910	734.036621	739.386414	736.711426	49.998287
198.138687	732.327637	735.894104	734.556702	62.500641
198.516449	729.281250	735.299805	731.287415	33.332996
198.894180	729.206848	732.624817	728.018066	-34.780357
199.271866	735.299744	734.556641	728.612488	899.909668
199.649536	736.934387	730.247070	727.200745	145.553787
200.027191	736.042725	729.504089	730.395752	86.363167
200.404816	733.962219	731.361633	735.522644	-60.002815
200.782410	733.367859	754.321289	740.575195	34.396927
201.159988	737.454529	773.788574	743.695984	17.177980
201.537537	735.151123	779.138367	737.825989	6.081003
201.915070	731.658875	774.457275	730.395752	-2.951331
202.292557	737.454529	775.943359	727.349365	-26.254795
202.670029	740.426575	783.522217	736.860107	-8.275702
203.047485	742.284180	778.692566	742.952881	1.836668
203.424911	730.098572	769.701904	746.816589	42.213665
203.802292	728.018066	760.042480	742.655701	45.707733
204.179688	728.166687	759.968201	742.804260	46.027912
204.557037	732.699158	756.104492	748.079773	65.714142
204.934357	727.423645	767.547180	755.361389	69.629318
205.311661	730.470032	764.277832	750.011658	57.802120
205.688934	726.383362	771.039368	743.175781	37.603943
206.066177	728.166687	760.711243	739.014832	33.333210
206.443390	717.541321	768.587402	737.083008	38.282444
206.820587	723.039734	772.451111	741.392578	37.142952
207.197769	728.092346	776.166260	743.993164	33.075771
207.574921	731.213074	773.491394	751.869324	48.857784
207.952042	731.510254	767.175598	748.897156	48.750130
208.329147	725.714661	766.581116	738.717773	31.818548
208.706223	728.463867	778.766785	742.878662	28.655981
209.083267	718.730225	781.590332	738.866272	32.033112
209.460297	714.717834	779.509827	740.575195	39.908268
209.837280	715.460876	770.965088	731.881836	29.585070
210.214264	715.163757	768.736023	723.708496	15.949930
210.591217	727.052063	772.748291	723.708496	-7.316943
210.968124	728.018066	770.816406	724.600098	-7.986218
211.345016	736.637146	770.593567	728.835388	-22.975796
211.721893	729.206848	763.386169	723.708496	-16.086779
212.098724	721.256531	751.869324	727.052063	18.931732
212.475555	717.467102	755.064270	730.767273	35.375458
212.852356	712.265930	756.847473	733.219238	46.999962
213.229126	721.330750	768.290100	728.389587	15.031805
213.605865	715.609436	765.318054	726.531982	21.973145
213.982590	722.296692	764.946472	723.634094	3.135778
214.359283	716.129639	755.138489	719.473206	8.571303
214.735931	724.005676	754.321228	727.646545	12.009906
215.112579	722.296814	755.807312	731.584534	27.715851
215.489197	725.343079	759.225281	739.609192	42.105034
215.865799	720.439148	750.531738	734.482361	46.666679
216.242355	717.021301	753.875488	738.494690	58.265804
216.618896	712.934631	757.144714	739.683594	60.504211
216.995407	711.968689	766.283997	737.974609	47.879543
217.371902	714.049133	764.872253	728.835388	29.093559
217.748367	719.621826	759.893860	728.984070	23.247507
218.124802	722.891113	757.441895	724.971680	6.021764
218.501236	721.256531	755.064270	733.442200	36.044022
218.877609	711.299988	755.212891	728.389587	38.917034
219.253983	714.123352	758.333496	737.380188	52.605202
219.630295	715.312256	760.562683	738.048889	50.246227
220.006592	720.216309	758.556458	734.705261	37.790550
220.382889	716.946960	753.875427	727.646484	28.973648
220.759140	720.662109	754.841309	720.216248	-1.304483
221.135391	726.383484	756.996094	726.606262	0.727734
221.511581	726.754944	762.866028	732.773438	16.666611
221.887772	727.646545	759.893982	735.225403	23.502201
222.263931	728.835388	769.256042	729.949890	2.757259
222.640060	725.788879	762.568848	724.377197	-3.838182
223.016159	716.055359	765.838196	734.928223	37.910381
223.392212	713.083191	765.392395	738.123230	47.869278
223.768265	717.912903	772.005310	740.500977	41.758308
224.144302	728.389465	775.348877	736.414246	17.088758
224.520294	722.965393	780.252869	739.683594	29.182995
224.896286	727.126465	777.429382	743.027161	31.609888
225.272217	727.349365	776.091980	742.655701	31.402369
225.648148	729.281189	769.479004	746.668030	43.253201
226.024048	727.349365	766.952698	746.147949	47.467178
226.399902	729.206848	768.884521	743.027161	34.831459
226.775772	731.138733	765.020813	735.225342	12.061269
227.151581	728.240967	774.977356	736.711426	18.123905
227.527374	725.120300	771.485107	737.231628	26.121813
227.903137	725.194580	770.519226	733.516418	18.360516
228.278870	721.776611	765.095154	733.739319	27.615675
228.654572	721.256531	765.689514	731.956116	24.080276
229.030273	723.931396	767.398499	735.894226	27.521572
229.405930	727.646484	770.742188	720.439209	-16.723885
229.781555	721.107910	769.999207	718.953125	-4.407298
230.157181	719.770508	775.794739	721.627991	3.315499
230.532761	710.334045	776.463379	735.894104	38.651619
230.908325	713.528992	774.605774	732.030457	30.292141
231.283859	714.792175	772.822571	732.179016	29.961611
231.659332	722.519714	766.878357	726.606262	9.212518
232.034821	723.039795	774.011414	725.045898	3.935727
232.410263	719.770508	771.410828	718.804504	-1.870638
232.785690	722.148132	770.593506	720.885071	-2.607187
233.161087	726.457703	770.742188	727.200745	1.677883
233.536469	723.114075	775.646179	723.857117	1.414453
233.911804	720.810730	776.983582	721.033630	0.396812
234.287140	712.414490	773.045471	724.451477	19.852865
234.662430	713.974854	764.872253	729.578430	30.656923
235.037704	719.027405	758.779358	736.042725	42.803734
235.412933	723.931396	758.556458	734.853821	31.544851
235.788162	727.423645	761.974426	737.974609	30.537556
236.163345	725.343079	769.627625	732.030457	15.100929
236.538513	725.714661	767.398499	733.813721	19.429737
236.913635	722.668213	768.438782	735.596924	28.246778
237.288742	711.076965	767.101318	742.507141	56.100918
237.663834	713.231873	767.992981	742.581360	53.595497
238.038879	718.507324	768.810242	734.259521	31.314680
238.413910	725.640381	770.742126	730.692932	11.202562
238.788910	725.343201	773.194092	727.572266	4.658356
239.163879	730.544250	770.593445	737.603027	17.625265
239.538834	730.841492	773.714172	732.104675	2.946360
239.913757	729.206848	771.336609	730.692932	3.527397
240.288651	717.244141	767.101318	732.773438	31.147566
240.663528	715.312317	772.153870	745.627869	53.333435
241.038361	716.203918	778.098145	745.181946	46.818626
241.413177	722.742615	790.283752	742.581360	29.372833
241.787979	725.268860	781.367432	734.036621	15.629206
242.162735	722.668274	787.831787	740.203796	26.910032
242.537476	718.284363	787.088684	733.962341	22.786327
242.912170	713.974854	802.692383	734.631042	23.283098
243.286865	716.129578	799.868835	736.339905	24.134830
243.661514	723.039734	803.583984	735.894226	15.959540
244.036148	728.612488	795.336365	732.030457	5.122557
244.410751	730.321472	796.079346	719.844727	-15.932306
244.785339	719.919128	795.782166	720.587830	0.881458
245.159882	718.804504	802.097839	726.309082	9.009818
245.534378	720.662109	799.571594	733.219238	15.913333
245.908890	727.126465	796.227966	736.562805	13.655767
246.283356	733.813660	792.067078	740.872375	12.117256
246.657791	730.841553	797.862610	742.432800	17.294933
247.032196	723.039734	808.785095	742.135559	22.270390
247.406586	715.386536	814.803650	739.312073	24.065813
247.780960	715.163757	827.732361	738.271912	20.528063
248.155289	719.398926	834.568176	739.609314	17.548424
248.529602	719.919128	839.472168	732.401917	10.441214
248.903870	722.073914	829.367004	731.807434	9.071898
249.278122	722.222412	819.410400	725.417480	3.287514
249.652344	723.336975	813.837646	730.321472	7.717619
250.026550	718.358704	811.905762	731.361633	13.899881
250.400711	725.491760	809.602356	738.569031	15.547709
250.774857	722.593994	807.224670	741.466797	22.300192
251.148987	732.476257	807.967773	738.791931	8.366071
251.523071	727.943665	813.837646	737.751709	11.418779
251.897125	728.612488	814.729309	735.671204	8.196675
252.271164	714.494934	817.701416	734.779602	19.654451
252.645187	711.597168	816.735535	732.030334	19.434547
253.019165	708.402161	820.896484	731.733154	20.739708
253.393112	713.826233	816.958435	738.866211	24.279495
253.767044	714.346375	815.175110	740.278015	25.718502
254.140930	725.788879	804.401306	746.816589	26.748583
254.514801	718.878845	802.246399	745.553467	31.996407
254.888657	724.897400	800.166016	744.216003	25.666214
255.262466	723.411316	812.128723	737.603088	15.996604
255.636276	735.002502	815.546692	736.562927	1.937352
256.010010	733.070618	822.159668	743.472961	11.676344
256.383759	724.377258	826.172058	749.863037	25.036425
256.757446	720.885010	830.630127	747.485352	24.238293
257.131134	715.758118	831.521790	741.095398	21.887074
257.504791	719.398987	829.887024	735.076843	14.189642
257.878418	715.832458	836.871582	738.494812	18.723164
258.252014	714.569336	855.595886	735.151184	14.594307
258.625580	715.832458	871.050781	738.643372	14.696018
258.999115	721.330811	893.861633	737.751709	9.517661
259.372650	726.086243	902.778015	745.776428	11.143805
259.746124	720.067688	921.502380	743.547363	11.656222
260.119598	710.408264	937.254578	746.593750	15.951543
260.493042	706.990417	950.851990	738.048889	12.736108
260.866425	711.076965	960.511292	723.039795	4.795984
261.239838	715.683777	950.926270	714.940857	-0.315810
261.613159	717.392761	937.403137	723.857117	2.938205
261.986511	721.107910	912.288879	741.169617	10.493568
262.359802	725.566101	896.536621	739.906494	8.387641
262.733063	730.024231	886.431458	732.922058	1.852745
263.106293	729.355530	886.208557	726.383362	-1.894874
263.479523	736.562805	884.351013	732.699158	-2.614314
263.852692	732.922058	881.304504	733.070618	0.100119
264.225861	729.875671	881.378845	733.665039	2.501180
264.598969	722.296692	882.864807	736.340027	8.746030
264.972076	723.857117	890.666687	739.832214	9.576847
265.345154	729.652649	891.261169	742.432800	7.908092
265.718201	730.544373	903.966980	741.838379	6.512419
266.091217	731.138733	914.517883	745.256348	7.698593
266.464203	722.965515	928.189514	750.457520	13.396096
266.837158	721.627991	936.065674	744.661926	10.741552
267.210114	721.405090	947.582520	743.770203	9.888304
267.583038	724.228577	962.666016	739.237793	6.294824
267.955902	724.080017	965.563782	742.581360	7.661527
268.328766	725.640381	974.405945	737.751770	4.868596
268.701569	725.863281	967.421387	732.624817	2.799134
269.074371	726.309143	971.508057	726.383484	0.030319
269.447144	719.250427	972.845459	736.117126	6.651037
269.819885	716.872620	988.374756	748.748535	11.740577
270.192596	714.866516	994.096008	756.476013	14.901541
270.565277	723.411316	1006.727539	753.949707	10.778907
270.937927	724.971680	1021.662354	750.828918	8.715218
271.310577	726.606384	1053.241089	753.578125	8.257463
271.683136	717.318542	1078.652588	747.782532	8.430977
272.055725	720.810730	1106.218872	736.934387	4.183528
272.428284	715.609558	1112.757568	732.922058	4.359206
272.800812	724.302917	1114.540894	735.819824	2.951252
273.173279	719.844788	1101.314941	746.519348	6.992568
273.545776	726.457703	1109.116699	750.903320	6.388356
273.918152	720.885071	1102.057983	743.918762	6.042846
274.290558	720.885071	1099.828979	739.089172	4.803904
274.662964	715.683838	1084.076782	734.779602	5.183531
275.035278	720.067688	1082.293457	734.482422	3.979489
275.407593	720.513489	1095.073486	739.906494	5.177543
275.779907	721.851013	1107.779175	740.129395	4.736213
276.152161	716.798340	1123.234253	743.547363	6.581363
276.524384	714.494934	1127.692383	733.665039	4.639454
276.896606	721.107910	1147.828491	729.504089	1.967606
277.268799	714.643555	1161.128540	736.711426	4.942578
277.640930	720.141907	1172.496948	741.318176	4.681338
278.013031	714.346375	1163.432007	751.200500	8.206481
278.385162	719.250305	1164.843750	745.256287	5.836257
278.757233	711.077148	1162.688843	743.844543	7.255657
279.129272	711.671448	1175.171875	738.494690	5.787102
279.501282	714.717957	1186.540161	738.123230	4.960613
279.873230	717.838562	1203.778320	741.392578	4.847106
280.245178	719.027405	1222.576904	737.677429	3.703712
280.617126	719.324646	1243.827515	735.374023	3.059922
280.988983	716.872620	1269.610474	735.225403	3.320341
281.360870	706.470276	1287.369019	737.008789	5.257115
281.732697	702.755188	1313.597778	744.067444	6.763159
282.104492	705.801575	1338.414917	748.674255	6.777075
282.476288	714.272034	1366.204102	744.067383	4.570315
282.848053	720.587708	1385.151367	741.541199	3.152970
283.219757	722.668213	1396.891113	737.454529	2.193090
283.591461	726.829163	1403.801392	745.479187	2.754917
283.963135	723.039795	1399.640259	749.045715	3.843616
284.334747	714.940735	1397.114258	748.302673	4.890535
284.706360	710.259766	1418.884766	752.686523	5.987195
285.077942	707.287598	1453.658325	751.349121	5.903437
285.449524	716.129639	1487.540405	749.714539	4.353699
285.821014	716.352539	1496.828125	742.432800	3.341586
286.192535	722.965515	1511.985962	743.398743	2.589695
286.563995	717.764343	1537.397827	744.141785	3.218199
286.935425	714.866455	1566.152832	744.661865	3.500046
287.306824	715.683777	1568.233398	743.695862	3.285684
287.678223	723.931458	1554.561523	741.392578	2.102154
288.049561	734.036621	1536.208618	748.674255	1.824750
288.420898	732.179016	1520.530884	741.615417	1.196978
288.792145	736.191345	1516.221191	741.689758	0.704898
289.163452	732.401917	1522.239868	736.488525	0.517398
289.534668	730.321472	1549.731812	742.581360	1.496184
289.905914	723.114075	1576.852173	750.531799	3.211491
290.277039	723.857117	1612.963379	748.451355	2.766175
290.648193	728.092346	1651.526733	744.736145	1.802380
291.019318	730.915833	1693.804810	736.488586	0.578754
291.390381	735.002502	1715.575562	733.070618	-0.197016
291.761475	732.253418	1715.798462	728.166687	-0.415510
292.132507	726.532043	1702.795410	728.092346	0.159824
292.503510	714.866455	1689.049438	736.934387	2.265276
292.874481	718.061523	1673.297363	749.120117	3.251406
293.245422	722.073914	1679.390137	749.491516	2.864007
293.616364	729.206848	1696.331055	746.073547	1.744005
293.987213	726.606384	1740.095337	742.804260	1.598229
294.358093	732.104736	1787.277710	750.308838	1.725224
294.728943	730.321472	1849.469116	752.166504	1.951935
295.099731	727.126404	1901.629761	745.702087	1.581578
295.470490	715.535156	1936.254517	739.386414	1.953869
295.841248	717.541443	1960.402954	737.380188	1.596215
296.211975	719.176086	1987.300659	742.655701	1.851523
296.582642	726.160583	2035.077271	737.231628	0.845817
296.953308	721.033630	2082.185059	733.665100	0.927999
297.323883	721.405090	2127.063965	732.030457	0.755899
297.694519	728.538147	2156.041992	735.522644	0.489280
298.065063	728.686768	2159.757324	743.324402	1.022845
298.435608	727.423645	2126.915527	745.627747	1.300765
298.806122	718.581604	2070.148193	746.668030	2.078064
299.176575	720.959290	2008.774048	744.290344	1.811678
299.547028	722.148132	1959.139771	740.575195	1.489667
299.917450	719.993408	1933.356812	749.045715	2.394361
300.287872	718.358704	1927.486938	739.386414	1.739080
300.658234	720.587830	1937.443359	738.271790	1.453251
301.028564	724.897278	1937.963501	727.795166	0.238890
301.398865	726.903503	1928.973022	737.305908	0.865375
301.769135	726.309082	1923.474487	741.912598	1.303372
302.139374	724.971680	1919.684937	749.863098	2.083464
302.509583	726.383362	1928.601196	743.547363	1.427695
302.879791	721.330872	1935.362915	744.364563	1.897289
303.249939	719.621887	1935.140137	741.169617	1.772720
303.620087	721.107910	1923.103027	739.609314	1.539225
303.990173	724.748779	1904.898926	740.946777	1.372537
304.360260	730.172852	1898.880249	743.695862	1.157091
304.730286	730.098450	1904.973145	754.618469	2.087033
305.100281	730.395691	1913.369141	757.367676	2.280016
305.470276	730.990173	1928.972778	749.863098	1.575392
305.840179	732.253235	1952.229492	742.878601	0.870949
306.210144	730.024231	1976.675171	740.872375	0.870183
306.579987	717.392822	1995.325195	749.045715	2.476883
306.949890	706.990417	2007.213501	762.345886	4.257382
307.319702	711.745789	2022.445679	755.064270	3.304988
307.689484	723.039795	2038.420898	751.126221	2.135231
308.059265	732.327637	2069.256592	736.042725	0.277882
308.429016	731.733215	2112.723633	733.293518	0.112984
308.798737	725.714661	2176.103760	742.358459	1.147540
309.168396	725.343079	2225.069336	743.027161	1.179154
309.538055	722.445313	2266.381592	750.308899	1.804711
309.907684	728.538086	2287.409180	745.702148	1.101057
310.277313	731.658875	2309.997314	745.702087	0.889747
310.646851	731.213074	2330.578857	746.222168	0.938440
311.016388	728.463867	2347.594482	751.126221	1.399662
311.385895	728.686768	2351.606689	753.058044	1.501693
311.755371	736.340027	2347.446045	746.742371	0.645665
312.124817	738.717590	2346.554443	743.250183	0.281906
312.494232	730.544373	2348.263184	744.959045	0.891049
312.863617	721.627991	2345.588135	749.714417	1.729502
313.232971	714.049133	2341.947510	745.850769	1.953539
313.602295	716.946960	2323.817627	751.869324	2.173315
313.971619	716.501160	2323.817627	753.949707	2.329880
314.340820	712.414551	2321.216797	757.070374	2.775719
314.710083	709.516663	2363.718018	753.132324	2.636660
315.079285	708.402161	2404.213135	751.126221	2.519388
315.448486	721.776672	2449.389160	753.429626	1.832179
315.817596	720.587830	2450.132080	749.863037	1.692654
316.186707	724.080078	2408.299805	753.206726	1.729385
316.555786	720.216309	2353.167236	749.863098	1.815535
316.924866	722.222473	2305.687744	751.572021	1.853501
317.293884	727.423645	2294.170654	749.342957	1.399033
317.662872	730.172852	2293.502197	745.553528	0.983841
318.031830	722.445313	2310.517578	741.243958	1.183740
318.400757	720.587830	2319.730713	749.937317	1.835326
318.769684	721.999512	2331.544922	749.937317	1.735757
319.138550	728.241028	2346.405518	750.160339	1.354579
319.507416	724.228699	2373.006104	738.717590	0.878766
319.876190	720.141907	2386.529053	740.872498	1.244044
320.244995	722.073792	2386.157715	744.513245	1.348457
320.613770	722.371094	2358.962891	744.216064	1.334784
320.982483	721.702332	2338.529541	740.723816	1.176470
321.351166	722.222473	2316.684570	740.575195	1.151029
321.719818	720.067688	2313.638428	753.058044	2.070216
322.088440	717.764343	2317.873291	756.401672	2.414669
322.457062	718.878845	2339.124023	756.327332	2.311285
322.825623	720.662109	2375.904053	748.079773	1.656414
323.194183	720.959290	2426.058350	748.897156	1.638489
323.562653	726.829285	2481.042236	749.937317	1.317288
323.931183	731.287415	2549.697754	752.835144	1.184976
324.299591	732.922058	2615.084229	750.977539	0.959295
324.668060	726.606262	2674.452393	759.373840	1.682247
325.036407	721.033630	2709.597412	762.866028	2.103649
325.404755	719.547546	2731.887939	766.135437	2.315110
