Jaz Data File
++++++++++++++++++++++++++++++++++++
Date: Fri Jun 04 17:07:50 2021
User: jaz
Dark Spectrum Present: Yes
Reference Spectrum Present: Yes
Processed Spectrum Present: Yes
Spectrometers: JAZA3586
Integration Time (usec): 120000 (JAZA3586)
Spectra Averaged: 10 (JAZA3586)
Boxcar Smoothing: 1 (JAZA3586)
Correct for Electrical Dark: No (JAZA3586)
Strobe/Lamp Enabled: Yes (JAZA3586)
Correct for Detector Non-linearity: No (JAZA3586)
Correct for Stray Light: No (JAZA3586)
Number of Pixels in Processed Spectrum: 2048
>>>>>Begin Processed Spectral Data<<<<<
W	D	R	S	P
191.335022	0.000000	0.000000	0.000000	0.000000
191.713211	229.818314	229.892624	231.898804	2799.733154
192.091385	460.082428	468.552979	461.345612	14.912650
192.469528	686.408508	696.142273	695.324890	91.602600
192.847641	692.724304	707.659180	695.101990	15.920358
193.225739	702.606506	714.197754	708.922302	54.487629
193.603790	719.547546	727.423584	715.460938	-51.886608
193.981842	727.869446	730.915833	728.835388	31.707806
194.359863	736.340027	734.408020	732.104675	219.220322
194.737854	738.791992	737.900208	741.541077	-308.267731
195.115829	739.163513	739.312012	742.432800	2201.561768
195.493774	740.203796	734.631042	741.615479	-25.331858
195.871704	741.615479	730.247131	742.432800	-7.189451
196.249603	741.912659	727.200745	747.039551	-34.848572
196.627457	738.346191	728.166687	747.262512	-87.590912
197.005310	736.934387	731.658875	744.736145	-147.886246
197.383133	741.169678	738.346130	737.751770	121.050125
197.760910	750.383118	746.445129	736.191406	360.379730
198.138687	758.556458	749.268738	733.367859	271.203247
198.516449	765.095154	740.203674	735.225403	119.999901
198.894180	755.064270	727.052185	738.717712	58.355377
199.271866	748.451355	730.544373	739.163574	51.866810
199.649536	735.819824	735.076843	736.340027	-70.015610
200.027191	733.144958	743.324524	733.293640	1.460589
200.404816	728.909668	743.547363	727.646545	-8.629245
200.782410	730.544373	754.989929	729.578430	-3.951403
201.159988	727.200684	768.513000	724.971680	-5.395495
201.537537	725.566101	774.308594	730.321472	9.756110
201.915070	721.702332	775.051758	724.080078	4.456930
202.292557	726.606262	771.930969	730.247253	8.033127
202.670029	730.470032	773.194153	730.172852	-0.695579
203.047485	734.259460	771.633789	734.705322	1.192963
203.424911	728.389587	768.215820	737.380188	22.574570
203.802292	722.296692	763.163269	737.008606	35.999870
204.179688	716.872742	763.014648	742.729980	56.038513
204.557037	725.640381	759.819641	736.191406	30.869671
204.934357	727.052063	759.522461	735.522705	26.087275
205.311661	731.658875	760.934143	729.058289	-8.883218
205.688934	723.188416	759.225159	732.773438	26.597914
206.066177	728.389648	764.054871	728.463867	0.208098
206.443390	721.851013	758.184998	727.646545	15.950721
206.820587	725.045959	758.259277	731.584656	19.686972
207.197769	728.761169	754.915710	737.231628	32.386189
207.574921	732.773438	757.962097	734.036621	5.014890
207.952042	733.219299	761.454285	728.389465	-17.105848
208.329147	719.101746	760.488342	729.652771	25.493822
208.706223	758.482178	803.212402	773.045593	32.558334
209.083267	762.717468	802.915222	771.113708	20.887337
209.460297	767.547119	795.782166	769.850586	8.158183
209.837280	729.132629	745.702148	734.482422	32.286949
210.214264	718.061523	745.553528	732.550598	52.702869
210.591217	714.792236	749.045715	729.355530	42.516247
210.968124	715.981018	758.630798	723.336975	17.247351
211.345016	722.519714	766.432556	725.863281	7.614098
211.721893	724.971680	778.469666	722.222473	-5.138897
212.098724	721.627991	778.469543	723.114075	2.614432
212.475555	712.860168	778.692566	723.485657	16.140211
212.852356	708.922180	769.850403	730.247131	35.000122
213.229126	712.117188	770.965027	730.544373	31.313274
213.605865	719.621826	762.048645	721.107910	3.502700
213.982590	725.120300	768.364441	715.015137	-23.367706
214.359283	720.513489	757.590515	713.974854	-17.635275
214.735931	718.284424	757.218994	721.850891	9.160155
215.112579	707.733459	751.274841	721.850891	32.423023
215.489197	701.343445	748.302734	717.689941	34.809933
215.865799	704.241211	744.216003	724.600098	50.929314
216.242355	718.284424	742.804260	720.290588	8.181803
216.618896	730.767273	749.417297	726.903564	-20.716909
216.995407	727.423645	758.184998	715.237976	-39.613567
217.371902	721.702332	761.602844	716.649719	-12.663026
217.748367	724.005676	764.352051	717.244141	-16.758718
218.124802	723.039734	757.887695	721.628113	-4.050800
218.501236	722.593933	754.841309	724.005676	4.377854
218.877609	714.197754	751.274841	720.587830	17.234568
219.253983	724.154297	754.767029	719.770447	-14.320349
219.630295	728.835449	757.590576	723.931396	-17.054533
220.006592	728.761047	758.927979	728.761047	0.000000
220.382889	718.284363	751.126221	725.268860	21.267057
220.759140	717.169922	746.370850	729.058289	40.712292
221.135391	713.306152	746.965271	729.429871	47.902973
221.511581	715.906738	745.181946	734.482422	63.451927
221.887772	711.225586	747.931152	723.634216	33.805855
222.263931	717.764343	757.739197	719.621826	4.646628
222.640060	717.541321	772.599670	722.891174	9.716698
223.016159	724.748718	769.553223	732.104797	16.418169
223.392212	717.764343	758.556458	732.773438	36.794106
223.768265	719.324646	756.253113	731.287415	32.394436
224.144302	708.699402	757.293396	724.674377	32.874382
224.520294	707.807800	757.293396	719.027527	22.672712
224.896286	717.021301	761.528564	722.371094	12.020043
225.272217	722.965515	765.912415	718.358704	-10.726762
225.648148	734.853943	771.336609	723.114075	-32.179306
226.024048	723.634094	767.695801	721.330811	-5.227405
226.399902	719.176025	770.370605	726.011902	13.352735
226.775772	702.235046	760.414063	727.646545	43.678116
227.151581	703.646790	756.401672	721.182129	33.239273
227.527374	703.721130	751.274841	724.451477	43.593540
227.903137	715.089355	760.636902	721.256531	13.540082
228.278870	718.433044	765.020813	725.937683	16.108603
228.654572	714.717957	763.609070	721.627991	14.133518
229.030273	711.002747	763.609070	725.194580	26.977428
229.405930	707.436279	760.636963	720.439148	24.441168
229.781555	708.402161	757.070374	719.398926	22.595375
230.157181	714.866516	755.807312	718.655945	9.255875
230.532761	711.597168	753.280945	719.993347	20.142559
230.908325	716.203918	762.568848	722.593994	13.782132
231.283859	715.089417	760.339783	725.045959	22.003231
231.659332	719.547546	759.671082	720.216248	1.666606
232.034821	715.535217	758.407898	719.101746	8.318883
232.410263	709.516663	755.732971	711.151367	3.537073
232.785690	702.978027	755.287109	717.392822	27.556965
233.161087	706.098816	748.377014	719.101746	30.755638
233.536469	708.773682	755.212891	728.463867	42.399918
233.911804	713.900574	747.411072	724.228699	30.820566
234.287140	713.751953	754.098328	727.720886	34.622524
234.662430	707.584778	751.943542	722.073792	32.663250
235.037704	703.795410	758.928040	728.166687	44.204815
235.412933	706.321594	760.339783	719.919006	25.171915
235.788162	715.906738	763.683411	724.302917	17.573805
236.163345	724.748779	773.416992	724.080017	-1.374125
236.538513	728.018066	774.977356	730.990173	6.329114
236.913635	730.693054	774.531555	723.188416	-17.118830
237.288742	733.739441	767.844238	724.377258	-27.451220
237.663834	732.104736	759.373779	721.033691	-40.599316
238.038879	729.949951	753.058105	720.736389	-39.871475
238.413910	719.176025	747.039551	711.374268	-27.999895
238.788910	711.522888	746.593750	712.785950	3.601456
239.163879	712.191589	752.017822	720.290588	20.335840
239.538834	713.603333	758.259277	722.445374	19.800367
239.913757	722.445374	761.157043	728.538269	15.739170
240.288651	721.330872	759.150940	729.132629	20.628618
240.663528	720.290527	765.243713	735.374023	33.553787
241.038361	713.900574	773.491394	724.748718	18.204390
241.413177	710.111084	772.005310	729.949890	32.052757
241.787979	708.402161	763.980652	720.141907	21.122822
242.162735	710.556946	760.339661	722.593933	24.179050
242.537476	710.854187	761.602844	715.981018	10.102398
242.912170	719.993408	775.125977	717.912903	-3.773641
243.286865	717.838623	773.342712	717.095520	-1.338826
243.661514	715.980957	770.965027	713.751953	-4.053908
244.036148	715.609558	767.472717	727.572266	23.065907
244.410751	718.878723	774.457275	726.754883	14.171222
244.785339	723.931396	775.125977	729.652649	11.175504
245.159882	714.346375	765.838135	721.702332	14.285697
245.534378	718.581604	760.488342	727.497864	21.276434
245.908890	720.290527	768.661621	722.742615	5.069324
246.283356	720.290527	769.627625	721.182190	1.807286
246.657791	720.587830	765.243713	719.176025	-3.161519
247.032196	718.061523	765.540955	731.956055	29.264317
247.406586	721.776672	764.797913	726.160461	10.189825
247.780960	714.494934	769.627625	724.674500	18.463757
248.155289	714.494934	767.175598	722.891174	15.937992
248.529602	715.312317	774.011414	731.213135	27.088692
248.903870	719.770508	769.330383	730.767273	22.188847
249.278122	715.832336	759.671082	717.541443	3.898621
249.652344	715.535156	757.961975	712.934753	-6.129149
250.026550	711.820068	763.906250	719.993469	15.692072
250.400711	717.764343	776.091980	734.110901	28.025408
250.774857	720.290588	769.999084	737.825989	35.276466
251.148987	727.795227	771.113586	729.578430	4.116507
251.523071	722.222473	764.426331	714.346375	-18.662035
251.897125	719.770447	771.039307	720.439209	1.304422
252.271164	710.705566	766.952637	719.473328	15.587943
252.645187	706.916077	769.330383	724.228699	27.738228
253.019165	703.126709	767.101318	721.925232	29.384350
253.393112	711.374268	776.091980	729.652771	28.243433
253.767044	715.980957	775.051758	729.504150	22.893194
254.140930	722.148132	772.376770	731.064453	17.751469
254.514801	718.878845	764.129211	732.847717	30.870186
254.888657	723.559875	768.958801	732.476135	19.639803
255.262466	722.296814	776.909241	727.943787	10.340087
255.636276	726.606384	776.537781	724.377197	-4.464499
256.010010	723.782898	778.469543	727.275085	6.385814
256.383759	728.686768	769.627502	728.686829	0.000149
256.757446	720.216248	770.965027	730.098572	19.473028
257.131134	718.432922	764.872070	730.172852	25.280243
257.504791	709.591003	772.674011	728.166687	29.446413
257.878418	713.603271	777.503662	729.058289	24.186108
258.252014	725.714661	783.819397	734.928223	15.856817
258.625580	725.491760	782.853516	736.265625	18.782314
258.999115	723.485596	779.658508	727.126465	6.481539
259.372650	713.677673	777.206482	722.148132	13.333257
259.746124	715.238037	782.927734	720.141907	7.244632
260.119598	717.095520	791.695496	717.392761	0.398447
260.493042	725.640320	802.766602	716.426819	-11.945994
260.866425	730.098450	797.342468	716.278259	-20.552298
261.239838	732.476257	796.525146	725.417480	-11.020920
261.613159	721.256531	789.986572	727.423645	8.972953
261.986511	722.742493	800.240295	734.705322	15.436347
262.359802	714.792175	795.930847	729.949951	18.681322
262.733063	716.575439	788.351868	726.011902	13.147021
263.106293	708.625061	780.995911	720.067688	15.811099
263.479523	711.671387	783.968018	725.789001	19.527348
263.852692	704.984192	789.020569	728.315247	27.763042
264.225861	710.333984	791.918396	727.497864	21.038185
264.598969	716.129639	793.181458	729.801270	17.743423
264.972076	722.296875	792.215637	728.092346	8.288864
265.345154	729.132629	795.262024	725.863281	-4.943865
265.718201	726.829285	792.958679	721.553711	-7.977653
266.091217	731.584534	803.286682	730.841614	-1.036119
266.464203	731.435974	801.875000	729.801453	-2.320477
266.837158	730.395691	803.286804	728.538269	-2.548214
267.210114	724.079895	792.958679	723.857117	-0.323435
267.583038	712.934570	788.054626	730.692932	23.639975
267.955902	711.151367	792.066956	732.104675	25.895267
268.328766	718.135742	808.859375	728.389648	11.302354
268.701569	716.129578	813.243225	729.949890	14.231071
269.074371	711.522888	814.729309	729.281189	17.206585
269.447144	708.402161	802.543701	728.538269	21.389185
269.819885	715.460938	807.596375	722.668274	7.822546
270.192596	723.337097	802.915222	721.776672	-1.960872
270.565277	723.262695	816.809814	726.829163	3.812482
270.937927	719.398926	818.147278	727.052063	7.750142
271.310577	717.615723	820.004883	729.578369	11.683509
271.683136	719.398926	820.970886	727.052063	7.534695
272.055725	724.154297	819.261902	726.754883	2.734362
272.428284	729.206848	829.812805	730.841614	1.624919
272.800812	725.714661	824.463074	730.692932	5.041368
273.173279	721.330811	831.670410	738.271790	15.353490
273.545776	712.860291	826.989258	737.157227	21.289019
273.918152	711.448547	827.509460	739.163391	23.879568
274.290558	712.562988	822.308167	737.380188	22.613476
274.662964	713.231750	828.846863	737.305908	20.822674
275.035278	716.055359	826.394836	735.225403	17.373695
275.407593	712.488770	829.738464	730.692932	15.525979
275.779907	714.569275	833.082092	727.869446	11.222559
276.152161	708.847961	840.958191	722.296692	10.179932
276.524384	716.872620	842.147034	726.977844	8.066471
276.896606	717.244141	838.283386	714.346375	-2.394072
277.268799	722.593994	847.273926	725.788879	2.562469
277.640930	717.615723	853.366699	718.061523	0.328396
278.013031	727.720886	857.750671	732.476257	3.657140
278.385162	729.949951	852.177917	725.120300	-3.951347
278.757233	731.881836	851.211914	721.850891	-8.406049
279.129272	721.405090	852.475098	722.296692	0.680248
279.501282	723.857117	851.583496	721.553711	-1.803391
279.873230	727.052063	845.713562	728.984070	1.628167
280.245178	732.550537	854.184082	729.355530	-2.626749
280.617126	722.371094	863.546204	730.321472	5.631572
280.988983	714.866455	879.967102	725.714661	6.570662
281.360870	713.826233	889.254883	731.807434	10.249866
281.732697	711.077087	898.096924	732.847717	11.640813
282.104492	722.965515	902.852295	735.968445	7.228396
282.476288	723.782715	899.731628	722.816895	-0.548921
282.848053	736.488586	900.325989	720.290588	-9.886630
283.219757	731.213074	909.985413	723.708496	-4.197841
283.591461	733.070618	924.251465	733.962219	0.466366
283.963135	728.835388	929.601257	733.442139	2.294589
284.334747	730.767273	930.418640	734.408020	1.823552
284.706360	724.600098	924.623047	727.869446	1.634487
285.077942	727.943665	929.007019	730.693054	1.367424
285.449524	722.519714	935.842773	728.761169	2.925823
285.821014	722.371094	932.573425	731.287415	4.241780
286.192535	716.649719	941.638367	727.869446	4.986797
286.563995	718.210144	938.814880	722.445313	1.919799
286.935425	723.188293	948.251282	720.439209	-1.221473
287.306824	726.383484	938.443359	722.148132	-1.997243
287.678223	722.222473	938.963440	722.519714	0.137141
288.049561	720.885010	944.610535	724.600098	1.660556
288.420898	717.615662	948.399902	729.504089	5.151317
288.792145	722.891113	953.675476	726.532043	1.577633
289.163452	722.965515	951.372070	724.748718	0.780715
289.534668	725.491760	963.632019	714.569275	-4.586576
289.905914	719.324707	972.845520	722.222412	1.142985
290.277039	727.943787	987.928955	728.166687	0.085736
290.648193	739.089172	995.210632	743.250183	1.624624
291.019318	737.677429	1002.195068	742.209900	1.713485
291.390381	725.194580	1004.424133	731.733154	2.341648
291.761475	713.157532	1006.430359	720.662109	2.558907
292.132507	716.278259	1011.631531	716.203918	-0.025170
292.503510	713.900574	1015.198059	716.946960	1.011089
292.874481	718.284363	1024.337280	728.018066	3.180399
293.245422	723.188416	1017.872986	733.516418	3.504766
293.616364	727.720886	1024.634644	737.528809	3.303290
293.987213	723.708496	1019.953430	730.841553	2.407824
294.358093	723.114075	1037.043091	731.213074	2.579882
294.728943	720.810730	1046.182251	729.058289	2.534813
295.099731	717.095520	1072.188354	727.126465	2.824880
295.470490	709.219482	1087.717529	729.504089	5.359237
295.841248	709.442383	1092.250122	737.454529	7.317550
296.211975	710.482605	1101.314941	735.671204	6.444860
296.582642	720.959290	1111.420044	731.435974	2.683159
296.953308	722.148132	1133.710938	727.869446	1.390144
297.323883	723.188416	1133.413696	728.612488	1.322218
297.694519	718.358704	1148.274170	726.531982	1.901136
298.065063	714.494934	1153.698242	722.742493	1.877845
298.435608	717.764343	1157.710693	730.544250	2.904879
298.806122	718.061523	1144.782104	728.092285	2.350663
299.176575	726.309082	1126.503540	731.435974	1.281100
299.547028	723.262695	1113.277710	727.497986	1.085930
299.917450	715.089355	1100.274780	730.470032	3.993058
300.287872	709.219543	1100.274780	719.473206	2.622050
300.658234	713.454773	1107.704956	709.665283	-0.961189
301.028564	720.439209	1107.184814	713.751953	-1.729110
301.398865	724.228577	1106.887573	728.835449	1.203911
301.769135	722.222473	1100.720459	735.374023	3.474669
302.139374	726.606384	1109.042358	736.414246	2.564576
302.509583	724.154358	1119.370483	724.451477	0.075179
302.879791	721.702332	1125.166138	725.417480	0.920813
303.249939	713.974854	1123.680054	718.433044	1.088146
303.620087	711.448547	1116.769897	720.216309	2.163163
303.990173	717.912903	1117.364258	711.968750	-1.488079
304.360260	724.005676	1121.079468	714.717957	-2.339041
304.730286	726.011902	1127.618164	716.798340	-2.294178
305.100281	714.717834	1132.522095	720.513489	1.387170
305.470276	710.705566	1134.379517	717.392822	1.578397
305.840179	710.705566	1140.398071	719.101746	1.953997
306.210144	713.677551	1148.125610	720.290588	1.522170
306.579987	717.838562	1160.014038	726.606262	1.982855
306.949890	713.157532	1164.472168	728.983948	3.506737
307.319702	718.358704	1171.308105	736.265625	3.953404
307.689484	717.169861	1182.899292	732.104675	3.206758
308.059265	725.045959	1204.447144	735.225403	2.123366
308.429016	722.593933	1220.348022	730.618652	1.612185
308.798737	721.776672	1239.592285	735.374023	2.625906
309.168396	720.364929	1248.434204	735.968445	2.954823
309.538055	718.358704	1267.158569	733.442200	2.748451
309.907684	719.844727	1272.359741	720.810730	0.174837
310.277313	714.494934	1280.904419	712.117188	-0.419793
310.646851	719.621887	1293.164551	713.231750	-1.114152
311.016388	713.974854	1309.808350	723.634216	1.621151
311.385895	717.838562	1319.839233	722.816895	0.826965
311.755371	714.717834	1317.015747	724.897278	1.690101
312.124817	720.067627	1321.473877	723.411316	0.555978
312.494232	720.885010	1326.823730	728.909729	1.324345
312.863617	719.250305	1321.251099	734.333801	2.505561
313.232971	724.600098	1317.461670	737.157288	2.118064
313.602295	726.234802	1308.099487	729.801331	0.612948
313.971619	724.154297	1312.483276	728.389587	0.719885
314.340820	721.627991	1308.025024	730.395691	1.495182
314.710083	721.850891	1326.154907	741.987000	3.332116
315.079285	722.222412	1347.479858	736.637207	2.305418
315.448486	725.566101	1369.696289	742.507080	2.630055
315.817596	716.649719	1372.817017	736.488586	3.023447
316.186707	720.439148	1360.408569	743.101563	3.541172
316.555786	706.841797	1348.445801	739.609314	5.107125
316.924866	712.042969	1333.139526	737.974609	4.175138
317.293884	709.962463	1328.978516	727.572266	2.844805
317.662872	716.575439	1323.182983	725.789001	1.518867
318.031830	714.569336	1328.532593	734.036621	3.170757
318.400757	719.101746	1335.071411	743.473083	3.956581
318.769684	719.027344	1350.303345	736.265686	2.730714
319.138550	720.513428	1358.996704	734.556702	2.199474
319.507416	716.426819	1368.878906	729.058289	1.936000
319.876190	710.259705	1362.191650	730.544434	3.111480
320.244995	711.597168	1369.399048	728.389587	2.552808
320.613770	716.946960	1364.643677	728.166687	1.732250
320.982483	727.349304	1370.959473	733.293518	0.923574
321.351166	723.782776	1366.798462	729.727051	0.924437
321.719818	719.473328	1366.872681	729.875671	1.606789
322.088440	714.123474	1370.513672	723.634216	1.448946
322.457062	716.426819	1381.287598	729.355530	1.944574
322.825623	717.244141	1389.237915	732.179016	2.222472
323.194183	714.643555	1404.692993	730.321472	2.271999
323.562653	708.922302	1416.358398	726.234802	2.447217
323.931183	708.773682	1445.559448	726.086182	2.349733
324.299591	714.569336	1478.178223	730.841553	2.130962
324.668060	718.581726	1511.020142	729.727051	1.406459
325.036407	712.414490	1551.589355	733.813660	2.550025
325.404755	708.625000	1563.255005	732.030457	2.738665
