Jaz Data File
++++++++++++++++++++++++++++++++++++
Date: Fri Jun 04 17:02:39 2021
User: jaz
Dark Spectrum Present: Yes
Reference Spectrum Present: Yes
Processed Spectrum Present: Yes
Spectrometers: JAZA3586
Integration Time (usec): 121000 (JAZA3586)
Spectra Averaged: 10 (JAZA3586)
Boxcar Smoothing: 1 (JAZA3586)
Correct for Electrical Dark: No (JAZA3586)
Strobe/Lamp Enabled: Yes (JAZA3586)
Correct for Detector Non-linearity: No (JAZA3586)
Correct for Stray Light: No (JAZA3586)
Number of Pixels in Processed Spectrum: 2048
>>>>>Begin Processed Spectral Data<<<<<
W	D	R	S	P
191.335022	0.000000	0.000000	0.000000	0.000000
191.713211	225.805969	227.812134	227.960754	107.408195
192.091385	456.738800	461.791412	459.859528	61.764633
192.469528	686.482849	693.913086	696.662292	137.000259
192.847641	699.188538	708.030579	707.733398	96.639008
193.225739	716.501160	719.696106	718.655945	67.443550
193.603790	733.145020	731.584656	728.538269	295.235687
193.981842	736.117004	733.962341	734.333801	82.760185
194.359863	734.779602	737.157227	737.528809	115.628288
194.737854	737.380188	747.931152	746.816711	89.437546
195.115829	753.281067	748.154114	750.085999	62.319046
195.493774	759.596680	749.268616	750.457520	88.488609
195.871704	762.791748	744.810547	749.417297	74.380188
196.249603	761.082825	753.726807	755.287170	78.787926
196.627457	756.178772	751.051941	756.624695	-8.697826
197.005310	760.191162	749.640137	753.801086	60.563553
197.383133	755.361511	742.358459	753.132324	17.143568
197.760910	755.955872	743.918762	754.915588	8.642301
198.138687	748.376953	747.188171	751.423401	-256.266357
198.516449	743.324402	750.383240	742.878601	-6.315498
198.894180	742.729980	741.764099	740.055115	276.935242
199.271866	743.101563	731.138855	743.993103	-7.452665
199.649536	742.878601	726.606262	746.742371	-23.744402
200.027191	743.324402	733.293518	747.262512	-39.259853
200.404816	737.603088	736.191406	739.906494	-163.167450
200.782410	740.649597	748.525635	736.785828	-49.057278
201.159988	736.934387	759.225281	742.209778	23.666124
201.537537	738.197571	773.937195	740.426575	6.236786
201.915070	729.058289	768.513000	749.491516	51.789066
202.292557	726.606262	768.587341	752.983704	62.831738
202.670029	726.531982	763.609070	763.609070	100.000000
203.047485	732.104675	771.187988	762.123047	76.806107
203.424911	730.692932	768.215820	762.048767	83.564560
203.802292	724.600098	763.386169	753.503906	74.521103
204.179688	724.377197	762.420227	748.005554	62.109554
204.557037	733.219238	762.568848	734.333801	3.797539
204.934357	733.070618	769.404602	739.460693	17.587049
205.311661	728.612488	767.175598	737.305847	22.543201
205.688934	716.575439	765.540833	747.336731	62.822514
206.066177	720.216309	764.575012	749.268738	65.494316
206.443390	713.900574	759.225281	748.822937	77.049286
206.820587	721.850891	755.435730	742.581360	61.725677
207.197769	727.646667	755.732910	737.305908	34.391361
207.574921	733.962341	758.482117	738.866272	19.999901
207.952042	727.646545	761.900085	734.928223	21.258175
208.329147	724.897400	759.522461	739.980774	43.562016
208.706223	763.757629	806.853210	795.707825	74.137985
209.083267	769.627625	809.156555	799.794495	76.315926
209.460297	771.039368	811.014160	791.546875	51.301098
209.837280	735.076843	764.946533	732.476257	-8.706438
210.214264	730.247131	769.107422	736.414246	15.869965
210.591217	728.538147	770.444885	736.785706	19.680746
210.968124	728.983948	771.559509	743.324402	33.682362
211.345016	731.733215	767.472839	746.073547	40.124462
211.721893	731.361633	758.853699	740.352295	32.702751
212.098724	732.773438	756.030273	733.442200	2.875551
212.475555	732.847717	755.510071	727.349365	-24.262053
212.852356	728.686768	758.779358	742.804260	46.913517
213.229126	726.829285	765.912415	743.695984	43.155960
213.605865	724.154297	762.643066	740.054993	41.312561
213.982590	721.776672	765.020813	734.779602	30.068651
214.359283	715.237976	762.494446	734.556641	40.880466
214.735931	709.591003	762.791748	733.887939	45.670292
215.112579	714.346375	757.367676	726.606262	28.497250
215.489197	719.250305	755.732910	729.949890	29.327908
215.865799	725.120300	759.819641	727.795166	7.708693
216.242355	716.575439	762.197266	725.268799	19.055264
216.618896	717.764221	760.785583	730.618652	29.879183
216.995407	718.135742	763.163269	732.104675	31.023096
217.371902	723.411316	764.129150	736.637207	32.481815
217.748367	732.922058	762.791687	736.860046	13.183921
218.124802	731.138855	753.503906	739.089172	35.547951
218.501236	730.024231	756.327393	740.500916	39.830513
218.877609	718.878845	755.881592	739.089172	54.618450
219.253983	718.433044	758.705078	739.534973	52.398468
219.630295	725.491760	755.361511	741.615479	53.980091
220.006592	728.835449	750.903320	742.061340	59.932793
220.382889	730.024231	746.073669	745.999329	99.536804
220.759140	717.541321	745.107727	743.770264	95.148216
221.135391	716.426819	742.952942	749.120056	123.249214
221.511581	715.535156	752.760925	752.463623	99.201355
221.887772	723.485596	756.253113	758.482117	106.802483
222.263931	724.080078	772.079590	751.349121	56.811085
222.640060	724.005676	766.581238	741.318298	40.663284
223.016159	717.095520	767.621399	735.522644	36.470665
223.392212	719.919006	757.813477	734.185242	37.647274
223.768265	726.011902	767.398438	731.213074	12.567305
224.144302	732.773376	768.958801	730.470032	-6.365394
224.520294	721.182129	773.788574	723.931396	5.226104
224.896286	716.055237	773.565613	730.470032	25.064686
225.272217	717.467102	775.868958	737.380188	34.096668
225.648148	727.052185	778.766785	747.931213	40.373566
226.024048	724.971619	770.890686	747.856934	49.838371
226.399902	719.621826	769.256104	744.661926	50.449207
226.775772	711.225586	763.237549	742.284180	59.714329
227.151581	718.433044	765.318054	743.101563	52.614937
227.527374	715.015137	761.825867	740.352295	54.126816
227.903137	718.730164	761.454346	737.305908	43.478291
228.278870	716.798340	758.184875	741.169678	58.887119
228.654572	717.392761	757.887695	744.513367	66.972832
229.030273	717.764343	762.271667	741.615479	53.589237
229.405930	715.683777	765.838135	737.231628	42.963070
229.781555	728.166687	768.736023	733.887939	14.102406
230.157181	736.562927	762.568848	736.711426	0.571018
230.532761	736.934387	764.723633	729.652771	-26.203001
230.908325	730.767273	770.221985	731.138855	0.941794
231.283859	726.383484	775.348877	728.240967	3.793461
231.659332	727.572266	772.674011	731.733154	9.225560
232.034821	728.612488	765.838135	724.228516	-11.776752
232.410263	719.696228	766.432556	727.572266	16.852068
232.785690	721.033630	767.844238	728.463867	15.872976
233.161087	721.925293	768.067200	730.544373	18.679504
233.536469	724.377197	763.980652	721.999512	-6.003733
233.911804	722.816895	763.757629	723.559875	1.814772
234.287140	721.776611	764.277832	727.720764	13.985840
234.662430	727.646484	768.661621	737.083008	23.007418
235.037704	723.782898	774.234375	741.169617	34.462257
235.412933	725.268860	773.937073	741.763977	33.892998
235.788162	720.067688	769.479004	745.330566	51.127720
236.163345	718.730286	764.649231	743.398743	53.721741
236.538513	716.724060	769.776123	748.674133	60.223999
236.913635	716.575439	768.290100	742.878601	50.862099
237.288742	720.884949	764.500671	743.101501	50.937027
237.663834	718.655945	757.070496	736.414246	46.228058
238.038879	724.302917	762.717468	743.101501	48.936104
238.413910	719.547546	763.906311	738.494690	42.713417
238.788910	719.324646	766.135437	734.928162	33.333160
239.163879	718.432922	767.175598	728.983948	21.646381
239.538834	713.751953	763.311829	734.631042	42.129021
239.913757	718.655945	764.575012	738.717712	43.689407
240.288651	715.015076	763.757629	737.008728	45.122078
240.663528	723.782776	773.268372	741.541077	35.885799
241.038361	720.513489	777.355042	740.203674	34.640476
241.413177	722.593994	773.417053	738.123230	30.555492
241.787979	725.640320	766.061035	731.584534	14.705860
242.162735	728.092346	765.466614	734.036621	15.904726
242.537476	725.937500	770.444885	741.243958	34.390827
242.912170	720.884949	777.949463	748.079773	47.656281
243.286865	718.135742	779.212646	752.389343	56.082741
243.661514	713.157532	780.104309	757.367676	66.037750
244.036148	719.176025	779.212646	756.996094	62.994999
244.410751	725.417480	776.389160	747.708313	43.731800
244.785339	735.076843	776.166260	734.333801	-1.808354
245.159882	736.711487	776.983582	726.903564	-24.354139
245.534378	732.476135	785.231140	733.962402	2.817301
245.908890	726.160461	784.859619	741.689758	26.455740
246.283356	726.457703	777.652283	740.723816	27.866453
246.657791	725.343201	766.878418	730.841614	13.237954
247.032196	731.510254	772.228210	728.686829	-6.934103
247.406586	725.640320	783.522217	734.556702	15.404440
247.780960	728.463867	787.311707	736.711426	14.015058
248.155289	727.795166	783.002136	738.420410	19.246201
248.529602	722.965515	777.726563	737.677429	26.865656
248.903870	724.674500	784.339539	738.197510	22.664881
249.278122	717.095520	784.265320	738.346130	31.637150
249.652344	720.513489	784.116638	734.779602	22.429886
250.026550	713.751892	774.085754	739.906433	43.349689
250.400711	712.785950	780.178528	741.764099	42.999023
250.774857	713.900452	777.726563	744.216064	47.497196
251.148987	719.027405	783.968018	738.346130	29.748297
251.523071	724.674377	777.726563	731.807434	13.445359
251.897125	728.686829	783.447937	737.305847	15.739306
252.271164	723.559875	778.766785	744.810547	38.492775
252.645187	725.120300	776.389160	751.794922	52.028896
253.019165	726.234863	769.924805	743.250183	38.945621
253.393112	733.888000	777.132141	748.451355	33.677059
253.767044	729.652771	771.930969	745.999329	38.664272
254.140930	727.349304	781.293152	749.045715	40.220364
254.514801	722.148132	776.537781	744.661865	41.393414
254.888657	725.045898	782.110413	742.729980	30.989630
255.262466	731.287354	775.051697	739.014893	17.657158
255.636276	731.064453	781.441711	742.878601	23.451351
256.010010	732.922058	781.738953	743.993164	22.678841
256.383759	724.080017	780.847351	743.547363	34.293221
256.757446	730.098450	773.194092	734.853943	11.034742
257.131134	724.451477	775.646057	727.869446	6.676427
257.504791	724.228577	776.983459	729.727051	10.422683
257.878418	715.460938	775.720398	729.281250	22.934677
258.252014	723.782776	780.550049	740.649597	29.712227
258.625580	720.885010	788.797668	741.169617	29.868670
258.999115	729.875671	794.073242	743.398743	21.064772
259.372650	726.680603	793.701660	740.055115	19.955687
259.746124	727.274963	791.546875	739.757874	19.422029
260.119598	728.463867	791.398254	740.203613	18.653946
260.493042	729.281250	796.822449	743.695984	21.342134
260.866425	728.166687	803.806824	747.633972	25.736713
261.239838	717.318420	810.048340	751.571960	36.939037
261.613159	708.922302	806.556152	748.079773	40.106449
261.986511	712.340149	801.800720	746.890930	38.621239
262.359802	720.513489	792.067078	743.175781	31.671776
262.733063	728.761169	789.020569	743.101501	23.797668
263.106293	725.937683	777.726563	729.578430	7.029978
263.479523	719.398926	785.008240	731.138855	17.893692
263.852692	719.696106	791.026855	732.699158	18.229237
264.225861	719.844788	802.172180	742.432800	27.436813
264.598969	730.990173	798.085632	740.798157	14.617954
264.972076	724.674500	792.587158	739.089111	21.225222
265.345154	726.531982	796.896729	736.265625	13.833124
265.718201	715.906738	803.509583	732.699158	19.168806
266.091217	729.801331	809.676758	736.265686	8.093046
266.464203	733.590820	815.323730	741.838379	10.090866
266.837158	739.014893	813.391846	750.011719	14.785260
267.210114	724.748718	820.673523	739.460754	15.337050
267.583038	719.770508	827.360779	741.838379	20.511028
267.955902	717.689941	834.419617	739.832214	18.968847
268.328766	722.965515	824.463074	749.863098	26.500719
268.701569	727.052063	813.168945	747.633972	23.899971
269.074371	719.473206	808.710754	749.863098	34.055050
269.447144	712.488770	815.992493	746.593750	32.950485
269.819885	709.591003	820.896484	745.850769	32.576801
270.192596	716.129700	825.577454	740.649597	22.403290
270.565277	730.767334	831.670349	751.497742	20.544884
270.937927	739.609375	831.150208	754.618469	16.396065
271.310577	735.671326	834.419617	754.395508	18.961525
271.683136	726.011902	824.165771	742.358582	16.654137
272.055725	717.690002	829.812805	736.340027	16.633570
272.428284	717.764343	830.555847	735.076843	15.349117
272.800812	720.364929	841.849854	728.612488	6.788957
273.173279	726.977783	836.351379	738.494690	10.529879
273.545776	735.522644	833.527893	743.844482	8.491217
273.918152	729.281250	831.075989	753.206726	23.503647
274.290558	719.621887	832.339111	738.791992	17.007254
274.662964	713.528992	837.094482	738.346130	20.084198
275.035278	720.439148	836.648621	725.268860	4.156040
275.407593	725.045898	836.500000	732.922058	7.066730
275.779907	724.822998	845.787842	725.417480	0.491451
276.152161	716.278259	852.846497	740.426575	17.682234
276.524384	712.934570	862.654541	748.599915	23.821367
276.896606	713.157410	861.242859	754.841309	28.148544
277.268799	719.027344	865.775391	753.355286	23.392435
277.640930	724.525818	863.026123	744.736145	14.592262
278.013031	731.138733	860.351257	747.931152	12.995969
278.385162	730.321472	854.704285	740.946716	8.542374
278.757233	722.296692	855.372864	737.231506	11.222756
279.129272	719.844727	859.608154	725.789001	4.253098
279.501282	718.953125	863.026062	725.937561	4.847847
279.873230	723.559875	869.861877	730.915833	5.027926
280.245178	724.971680	875.806152	743.027283	11.970475
280.617126	721.182312	877.589355	744.438965	14.869313
280.988983	715.015137	878.258118	739.534973	15.020453
281.360870	716.724060	885.465515	738.791931	13.077919
281.732697	721.702332	894.679016	745.627747	13.831584
282.104492	731.138733	902.778015	744.438965	7.748944
282.476288	730.544373	901.960754	741.912598	6.631936
282.848053	732.253357	908.945129	737.231628	2.817489
283.219757	730.321472	915.409485	738.791992	4.576482
283.591461	725.194519	924.474426	737.157288	6.002998
283.963135	726.086121	923.954285	745.182068	9.650844
284.334747	736.637146	924.845947	752.537903	8.448466
284.706360	734.779602	925.291809	751.200500	8.619342
285.077942	734.333801	936.362976	751.497742	8.495773
285.449524	715.460876	947.359680	757.367676	18.071157
285.821014	713.157532	955.235779	764.575012	21.240025
286.192535	711.225647	957.687805	756.847473	18.510681
286.563995	715.609436	967.198547	739.609314	9.539315
286.935425	715.832458	964.300781	735.076843	7.745206
287.306824	719.027527	964.597961	727.200684	3.328233
287.678223	713.751953	954.418457	734.408142	8.582910
288.049561	726.011963	955.235779	736.339905	4.505615
288.420898	724.154358	952.783752	737.008728	5.622361
288.792145	732.327637	952.486572	732.699158	0.168751
289.163452	729.504150	958.876526	728.984070	-0.226741
289.534668	737.454529	966.975586	731.138855	-2.751675
289.905914	737.380188	972.548340	735.522644	-0.789879
290.277039	735.745544	985.105469	748.079834	4.946380
290.648193	735.299744	1001.229187	757.441895	8.326325
291.019318	731.881836	1010.591248	758.184998	9.437486
291.390381	724.451599	1006.727539	746.147949	7.686220
291.761475	708.996582	995.582214	740.500916	10.992991
292.132507	712.042969	994.616211	741.095398	10.281380
292.503510	715.758118	1004.126953	737.900391	7.678455
292.874481	729.727051	1021.439453	755.510071	8.838507
293.245422	727.572266	1028.126709	755.955872	9.443748
293.616364	724.600159	1034.442383	762.048645	12.086308
293.987213	717.912903	1029.464233	746.445068	9.158094
294.358093	718.061523	1047.073975	742.432800	7.407403
294.728943	714.940857	1060.448364	743.175781	8.172014
295.099731	711.745789	1076.720825	738.940613	7.451147
295.470490	717.467041	1094.776245	741.392578	6.341095
295.841248	720.736328	1105.773193	741.689758	5.441928
296.211975	722.073792	1118.999146	742.878601	5.241492
296.582642	719.547546	1123.902954	742.804260	5.751553
296.953308	719.770508	1133.116577	741.466797	5.248940
297.323883	724.005676	1144.410400	740.426575	3.905974
297.694519	720.364929	1144.113281	737.974609	4.155693
298.065063	719.993408	1146.565308	740.203674	4.737833
298.435608	721.107910	1139.952271	749.937317	6.883083
298.806122	729.429871	1132.447754	748.377014	4.701316
299.176575	731.584534	1129.252808	742.952942	2.858767
299.547028	728.761047	1123.680054	736.265625	1.900283
299.917450	722.148132	1121.525269	743.547302	5.358136
300.287872	721.702332	1114.317993	742.358459	5.261158
300.658234	725.937561	1115.952515	749.714417	6.096396
301.028564	727.795166	1120.782227	751.423401	6.012472
301.398865	726.977844	1122.714111	752.092102	6.346211
301.769135	722.891113	1129.995728	753.801086	7.592637
302.139374	716.575439	1132.893555	752.389343	8.602533
302.509583	716.129639	1126.354980	751.869324	8.712208
302.879791	713.454773	1118.850464	738.791992	6.249997
303.249939	715.832458	1116.026855	740.055115	6.052722
303.620087	718.804504	1127.172241	743.547363	6.058965
303.990173	720.810730	1130.367310	747.039551	6.404200
304.360260	721.182190	1138.837891	748.897156	6.635840
304.730286	724.600159	1140.472412	753.652527	6.985888
305.100281	722.891174	1142.552856	755.732971	7.825779
305.470276	728.166687	1135.345581	748.302734	4.945258
305.840179	722.668274	1137.203125	741.095398	4.445253
306.210144	719.621887	1140.249634	735.968445	3.886229
306.579987	719.473328	1152.658081	735.745544	3.756415
306.949890	714.049133	1159.345337	731.138733	3.837805
307.319702	718.878845	1177.846680	744.513245	5.585228
307.689484	714.494934	1184.905396	744.364685	6.349721
308.059265	725.789001	1204.298462	743.844543	3.773288
308.429016	727.497986	1212.174683	729.355469	0.383242
308.798737	726.531982	1233.722412	736.265625	1.919130
309.168396	725.863281	1243.456055	734.928223	1.751366
309.538055	714.346375	1256.533325	737.528809	4.275727
309.907684	719.324646	1268.793213	738.643372	3.515893
310.277313	714.569336	1281.796143	744.661926	5.305213
310.646851	723.559875	1294.353394	751.126221	4.829478
311.016388	717.764343	1306.241821	750.977600	5.643930
311.385895	724.525818	1312.483276	757.219055	5.560477
311.755371	723.931396	1314.415039	752.166504	4.781692
312.124817	722.148132	1313.300537	737.083008	2.526400
312.494232	719.993347	1310.254272	734.705322	2.492453
312.863617	721.330811	1307.876343	738.494812	2.926286
313.232971	724.377258	1304.978638	748.897156	4.223190
313.602295	719.473328	1306.910522	744.587646	4.275235
313.971619	717.095520	1316.049805	741.466858	4.068981
314.340820	721.702332	1320.359253	737.826111	2.693326
314.710083	729.058350	1331.430542	743.621643	2.417657
315.079285	730.618652	1344.433472	745.033386	2.348385
315.448486	729.652649	1366.204102	749.640198	3.139974
315.817596	717.838562	1358.328003	747.188232	4.582382
316.186707	719.621765	1352.532349	750.383118	4.860300
316.555786	717.169739	1331.950684	749.863037	5.317878
316.924866	724.080017	1334.551147	758.259277	5.598833
317.293884	713.083191	1332.322144	755.881592	6.911452
317.662872	709.293762	1336.557251	758.779358	7.889124
318.031830	709.739563	1343.393066	742.358459	5.147750
318.400757	724.154297	1354.538574	740.575195	2.604903
318.769684	724.897278	1368.730469	737.083008	1.892684
319.138550	717.244141	1373.188599	744.587585	4.168561
319.507416	713.306152	1378.092407	740.426575	4.079570
319.876190	713.603333	1378.909790	737.157288	3.540317
320.244995	717.541321	1387.157593	745.033386	4.105645
320.613770	719.547546	1381.064819	747.559631	4.234520
320.982483	724.228699	1377.869629	750.680359	4.046818
321.351166	727.572266	1367.690063	739.386414	1.845621
321.719818	725.120178	1363.826294	745.627747	3.210799
322.088440	727.646545	1368.730347	749.788757	3.453872
322.457062	730.395752	1385.225586	746.445129	2.450923
322.825623	721.925232	1408.705200	742.284180	2.964406
323.194183	717.021179	1418.884766	738.271912	3.027758
323.562653	710.408264	1439.912476	747.188171	5.041768
323.931183	719.621826	1457.596558	747.336731	3.755536
324.299591	719.398926	1492.741821	739.460693	2.594162
324.668060	724.228699	1513.100586	734.928223	1.356307
325.036407	724.302917	1536.654663	738.569092	1.756157
325.404755	725.937683	1552.555298	748.154114	2.687631
