Jaz Data File
++++++++++++++++++++++++++++++++++++
Date: Fri Jun 04 17:02:46 2021
User: jaz
Dark Spectrum Present: Yes
Reference Spectrum Present: Yes
Processed Spectrum Present: Yes
Spectrometers: JAZA3586
Integration Time (usec): 121000 (JAZA3586)
Spectra Averaged: 10 (JAZA3586)
Boxcar Smoothing: 1 (JAZA3586)
Correct for Electrical Dark: No (JAZA3586)
Strobe/Lamp Enabled: Yes (JAZA3586)
Correct for Detector Non-linearity: No (JAZA3586)
Correct for Stray Light: No (JAZA3586)
Number of Pixels in Processed Spectrum: 2048
>>>>>Begin Processed Spectral Data<<<<<
W	D	R	S	P
191.335022	0.000000	0.000000	0.000000	0.000000
191.713211	225.805969	227.812134	226.251770	22.221546
192.091385	456.738800	461.791412	454.881256	-36.764030
192.469528	686.482849	693.913086	687.671692	16.000065
192.847641	699.188538	708.030579	695.770691	-38.654499
193.225739	716.501160	719.696106	711.894348	-144.190582
193.603790	733.145020	731.584656	727.423645	366.669281
193.981842	736.117004	733.962341	741.020996	-227.598999
194.359863	734.779602	737.157227	744.736145	418.760101
194.737854	737.380188	747.931152	747.411133	95.071358
195.115829	753.281067	748.154114	747.708313	108.695236
195.493774	759.596680	749.268616	742.061340	169.783417
195.871704	762.791748	744.810547	738.791992	133.471375
196.249603	761.082825	753.726807	738.866272	302.018738
196.627457	756.178772	751.051941	744.884766	220.292145
197.005310	760.191162	749.640137	742.804260	164.788742
197.383133	755.361511	742.358459	744.587585	82.856903
197.760910	755.955872	743.918762	751.051941	40.740101
198.138687	748.376953	747.188171	754.767090	-537.536560
198.516449	743.324402	750.383240	750.977539	108.419220
198.894180	742.729980	741.764099	741.095276	169.244873
199.271866	743.101563	731.138855	735.596863	62.734123
199.649536	742.878601	726.606262	735.745422	43.836224
200.027191	743.324402	733.293518	738.494812	48.147202
200.404816	737.603088	736.191406	735.596924	142.111633
200.782410	740.649597	748.525635	733.442200	-91.510452
201.159988	736.934387	759.225281	735.002502	-8.666699
201.537537	738.197571	773.937195	744.438965	17.463514
201.915070	729.058289	768.513000	753.429504	61.770103
202.292557	726.606262	768.587341	755.287170	68.318657
202.670029	726.531982	763.609070	756.104492	79.759529
203.047485	732.104675	771.187988	752.835144	53.041740
203.424911	730.692932	768.215820	753.503906	60.792160
203.802292	724.600098	763.386169	756.253113	81.609230
204.179688	724.377197	762.420227	750.085938	67.578056
204.557037	733.219238	762.568848	743.695862	35.695957
204.934357	733.070618	769.404602	736.265686	8.793609
205.311661	728.612488	767.175598	736.265625	19.845747
205.688934	716.575439	765.540833	740.649475	49.165409
206.066177	720.216309	764.575012	738.866272	42.043526
206.443390	713.900574	759.225281	734.631042	45.737679
206.820587	721.850891	755.435730	732.922058	32.964775
207.197769	727.646667	755.732910	728.092346	1.586822
207.574921	733.962341	758.482117	731.807556	-8.787949
207.952042	727.646545	761.900085	724.823059	-8.242904
208.329147	724.897400	759.522461	727.720886	8.154459
208.706223	763.757629	806.853210	769.181702	12.586144
209.083267	769.627625	809.156555	771.930969	5.826985
209.460297	771.039368	811.014160	776.166199	12.825160
209.837280	735.076843	764.946533	730.618652	-14.925467
210.214264	730.247131	769.107422	732.030334	4.588754
210.591217	728.538147	770.444885	728.463867	-0.177250
210.968124	728.983948	771.559509	743.547363	34.206043
211.345016	731.733215	767.472839	750.308899	51.975040
211.721893	731.361633	758.853699	747.931152	60.270187
212.098724	732.773438	756.030273	735.374023	11.182028
212.475555	732.847717	755.510071	734.408142	6.885537
212.852356	728.686768	758.779358	736.934387	27.407476
213.229126	726.829285	765.912415	744.661926	45.627464
213.605865	724.154297	762.643066	738.494812	37.258961
213.982590	721.776672	765.020813	739.237793	40.378002
214.359283	715.237976	762.494446	733.367859	38.364868
214.735931	709.591003	762.791748	734.556641	46.927231
215.112579	714.346375	757.367676	738.569031	56.303867
215.489197	719.250305	755.732910	738.717590	53.360458
215.865799	725.120300	759.819641	736.711487	33.404629
216.242355	716.575439	762.197266	734.408020	39.087826
216.618896	717.764221	760.785583	742.729980	58.031075
216.995407	718.135742	763.163269	740.500977	49.670135
217.371902	723.411316	764.129150	736.340027	31.751961
217.748367	732.922058	762.791687	729.726990	-10.696712
218.124802	731.138855	753.503906	731.138855	0.000000
218.501236	730.024231	756.327393	729.801331	-0.847428
218.877609	718.878845	755.881592	732.624817	37.148518
219.253983	718.433044	758.705078	737.528809	47.416935
219.630295	725.491760	755.361511	740.203796	49.253963
220.006592	728.835449	750.903320	739.683594	49.158092
220.382889	730.024231	746.073669	734.854004	30.093096
220.759140	717.541321	745.107727	736.414307	68.463715
221.135391	716.426819	742.952942	731.584534	57.142593
221.511581	715.535156	752.760925	733.516418	48.303265
221.887772	723.485596	756.253113	729.875549	19.500877
222.263931	724.080078	772.079590	732.253357	17.027838
222.640060	724.005676	766.581238	726.531982	5.933700
223.016159	717.095520	767.621399	733.442139	32.352962
223.392212	719.919006	757.813477	736.711426	44.313641
223.768265	726.011902	767.398438	740.575195	35.188480
224.144302	732.773376	768.958801	734.556702	4.928297
224.520294	721.182129	773.788574	725.789001	8.757239
224.896286	716.055237	773.565613	731.807556	27.390396
225.272217	717.467102	775.868958	735.002502	30.025417
225.648148	727.052185	778.766785	744.067383	32.902115
226.024048	724.971619	770.890686	735.968445	23.948278
226.399902	719.621826	769.256104	732.922058	26.796465
226.775772	711.225586	763.237549	722.891113	22.428547
227.151581	718.433044	765.318054	719.919006	3.169375
227.527374	715.015137	761.825867	719.770447	10.158589
227.903137	718.730164	761.454346	727.052063	19.478195
228.278870	716.798340	758.184875	730.990173	34.290943
228.654572	717.392761	757.887695	730.767273	33.027618
229.030273	717.764343	762.271667	726.160583	18.864851
229.405930	715.683777	765.838135	722.445374	13.481574
229.781555	728.166687	768.736023	730.024231	4.578690
230.157181	736.562927	762.568848	729.504089	-27.143196
230.532761	736.934387	764.723633	741.169617	15.240534
230.908325	730.767273	770.221985	738.866272	20.527330
231.283859	726.383484	775.348877	747.633972	43.398994
231.659332	727.572266	772.674011	743.398743	35.090611
232.034821	728.612488	765.838135	743.918884	41.117878
232.410263	719.696228	766.432556	734.333801	31.319477
232.785690	721.033630	767.844238	729.281250	17.619125
233.161087	721.925293	768.067200	728.240967	13.687501
233.536469	724.377197	763.980652	729.429871	12.758163
233.911804	722.816895	763.757629	727.423645	11.252242
234.287140	721.776611	764.277832	723.485596	4.021024
234.662430	727.646484	768.661621	724.748718	-7.065114
235.037704	723.782898	774.234375	731.361633	15.021831
235.412933	725.268860	773.937073	728.166687	5.954250
235.788162	720.067688	769.479004	730.841553	21.804447
236.163345	718.730286	764.649231	726.829163	17.637333
236.538513	716.724060	769.776123	727.720886	20.728367
236.913635	716.575439	768.290100	723.039795	12.500044
237.288742	720.884949	764.500671	722.668274	4.088721
237.663834	718.655945	757.070496	723.782776	13.346066
238.038879	724.302917	762.717468	729.652649	13.926315
238.413910	719.547546	763.906311	728.018066	19.095482
238.788910	719.324646	766.135437	734.630920	32.698174
239.163879	718.432922	767.175598	730.692932	25.152517
239.538834	713.751953	763.311829	735.002441	42.878414
239.913757	718.655945	764.575012	727.052063	18.284601
240.288651	715.015076	763.757629	733.442139	37.804878
240.663528	723.782776	773.268372	728.909729	10.360496
241.038361	720.513489	777.355042	732.253357	20.653673
241.413177	722.593994	773.417053	724.525879	3.801197
241.787979	725.640320	766.061035	730.470032	11.948606
242.162735	728.092346	765.466614	732.179016	10.934448
242.537476	725.937500	770.444885	737.380188	25.709639
242.912170	720.884949	777.949463	739.534973	32.682350
243.286865	718.135742	779.212646	742.729980	40.267658
243.661514	713.157532	780.104309	738.049011	37.180996
244.036148	719.176025	779.212646	737.751770	30.940689
244.410751	725.417480	776.389160	732.476257	13.848429
244.785339	735.076843	776.166260	734.631042	-1.084953
245.159882	736.711487	776.983582	733.888000	-7.011024
245.534378	732.476135	785.231140	737.825989	10.140941
245.908890	726.160461	784.859619	738.048889	20.253149
246.283356	726.457703	777.652283	731.733154	10.304708
246.657791	725.343201	766.878418	730.618652	12.701154
247.032196	731.510254	772.228210	733.590759	5.109552
247.406586	725.640320	783.522217	734.705383	15.661310
247.780960	728.463867	787.311707	728.909668	0.757548
248.155289	727.795166	783.002136	726.160461	-2.961047
248.529602	722.965515	777.726563	722.816833	-0.271510
248.903870	724.674500	784.339539	730.544373	9.838044
249.278122	717.095520	784.265320	728.761169	17.367403
249.652344	720.513489	784.116638	740.129456	30.841188
250.026550	713.751892	774.085754	741.466858	45.936005
250.400711	712.785950	780.178528	752.315002	58.654903
250.774857	713.900452	777.726563	746.147949	50.523991
251.148987	719.027405	783.968018	748.302734	45.080154
251.523071	724.674377	777.726563	741.169617	31.092478
251.897125	728.686829	783.447937	752.240723	43.012085
252.271164	723.559875	778.766785	745.107666	39.030968
252.645187	725.120300	776.389160	740.055115	29.130381
253.019165	726.234863	769.924805	728.315247	4.761699
253.393112	733.888000	777.132141	738.420471	10.481121
253.767044	729.652771	771.930969	741.912659	28.998133
254.140930	727.349304	781.293152	746.965271	36.363678
254.514801	722.148132	776.537781	741.838379	36.202194
254.888657	725.045898	782.110413	742.284180	30.208408
255.262466	731.287354	775.051697	740.575195	21.222395
255.636276	731.064453	781.441711	742.135559	21.976397
256.010010	732.922058	781.738953	746.742371	28.310511
256.383759	724.080017	780.847351	750.160217	45.942268
256.757446	730.098450	773.194092	746.519348	38.103386
257.131134	724.451477	775.646057	746.147888	42.380291
257.504791	724.228577	776.983459	745.553528	40.422707
257.878418	715.460938	775.720398	743.695862	46.855587
258.252014	723.782776	780.550049	744.216064	35.994839
258.625580	720.885010	788.797668	742.135559	31.290998
258.999115	729.875671	794.073242	739.757874	15.393420
259.372650	726.680603	793.701660	727.943787	1.884756
259.746124	727.274963	791.546875	725.640320	-2.543325
260.119598	728.463867	791.398254	733.442139	7.910256
260.493042	729.281250	796.822449	744.810486	22.992243
260.866425	728.166687	803.806824	739.609314	15.127719
261.239838	717.318420	810.048340	729.429871	13.060995
261.613159	708.922302	806.556152	729.652771	21.232870
261.986511	712.340149	801.800720	732.922058	23.006681
262.359802	720.513489	792.067078	735.225403	20.560694
262.733063	728.761169	789.020569	732.624817	6.411693
263.106293	725.937683	777.726563	735.076843	17.646955
263.479523	719.398926	785.008240	737.974609	28.312571
263.852692	719.696106	791.026855	743.250061	33.020760
264.225861	719.844788	802.172180	748.228333	34.476429
264.598969	730.990173	798.085632	743.621582	18.826027
264.972076	724.674500	792.587158	739.757874	22.209959
265.345154	726.531982	796.896729	737.305908	15.311540
265.718201	715.906738	803.509583	737.900330	25.106024
266.091217	729.801331	809.676758	746.668030	21.116255
266.464203	733.590820	815.323730	751.646301	22.090834
266.837158	739.014893	813.391846	759.522400	27.572395
267.210114	724.748718	820.673523	750.977600	27.343170
267.583038	719.770508	827.360779	744.067444	22.582838
267.955902	717.689941	834.419617	736.340027	15.977159
268.328766	722.965515	824.463074	732.773438	9.663210
268.701569	727.052063	813.168945	732.699158	6.557477
269.074371	719.473206	808.710754	736.414246	18.984205
269.447144	712.488770	815.992493	737.083008	23.761694
269.819885	709.591003	820.896484	739.534973	26.902512
270.192596	716.129700	825.577454	740.575195	22.335310
270.565277	730.767334	831.670349	741.541199	10.677445
270.937927	739.609375	831.150208	735.374023	-4.626735
271.310577	735.671326	834.419617	730.321472	-5.417667
271.683136	726.011902	824.165771	726.829163	0.832632
272.055725	717.690002	829.812805	726.977844	8.283633
272.428284	717.764343	830.555847	730.172852	11.001279
272.800812	720.364929	841.849854	729.132568	7.217060
273.173279	726.977783	836.351379	737.380188	9.510892
273.545776	735.522644	833.527893	741.243958	5.837762
273.918152	729.281250	831.075989	752.612305	22.919706
274.290558	719.621887	832.339111	744.216064	21.819361
274.662964	713.528992	837.094482	738.048889	19.843645
275.035278	720.439148	836.648621	735.151123	12.659876
275.407593	725.045898	836.500000	740.129395	13.533370
275.779907	724.822998	845.787842	748.748535	19.778917
276.152161	716.278259	852.846497	741.987000	18.824831
276.524384	712.934570	862.654541	742.655701	19.851147
276.896606	713.157410	861.242859	737.454590	16.407541
277.268799	719.027344	865.775391	736.637207	12.000067
277.640930	724.525818	863.026123	739.609314	10.890587
278.013031	731.138733	860.351257	740.203674	7.015529
278.385162	730.321472	854.704285	735.002441	3.763357
278.757233	722.296692	855.372864	729.058289	5.080997
279.129272	719.844727	859.608154	729.132568	6.645402
279.501282	718.953125	863.026062	738.866272	13.821573
279.873230	723.559875	869.861877	733.813660	7.008642
280.245178	724.971680	875.806152	729.355469	2.906358
280.617126	721.182312	877.589355	722.073792	0.569974
280.988983	715.015137	878.258118	716.946960	1.183404
281.360870	716.724060	885.465515	725.120300	4.975802
281.732697	721.702332	894.679016	728.166687	3.737125
282.104492	731.138733	902.778015	733.739441	1.515217
282.476288	730.544373	901.960754	727.943787	-1.517116
282.848053	732.253357	908.945129	734.036438	1.009148
283.219757	730.321472	915.409485	742.135559	6.382957
283.591461	725.194519	924.474426	748.154053	11.521249
283.963135	726.086121	923.954285	748.822815	11.490830
284.334747	736.637146	924.845947	749.120056	6.632480
284.706360	734.779602	925.291809	738.569092	1.989106
285.077942	734.333801	936.362976	733.590759	-0.367789
285.449524	715.460876	947.359680	728.389465	5.575099
285.821014	713.157532	955.235779	736.191345	9.515028
286.192535	711.225647	957.687805	734.853821	9.586938
286.563995	715.609436	967.198547	740.500977	9.893727
286.935425	715.832458	964.300781	737.380188	8.672224
287.306824	719.027527	964.597961	747.262451	11.497689
287.678223	713.751953	954.418457	747.708313	14.109301
288.049561	726.011963	955.235779	746.073669	8.752017
288.420898	724.154358	952.783752	737.528809	5.849839
288.792145	732.327637	952.486572	736.265625	1.788702
289.163452	729.504150	958.876526	742.135681	5.506998
289.534668	737.454529	966.975586	743.547363	2.654586
289.905914	737.380188	972.548340	745.256348	3.349161
290.277039	735.745544	985.105469	746.816711	4.439834
290.648193	735.299744	1001.229187	754.989990	7.404312
291.019318	731.881836	1010.591248	750.011719	6.504941
291.390381	724.451599	1006.727539	745.776367	7.554582
291.761475	708.996582	995.582214	737.380188	9.904058
292.132507	712.042969	994.616211	743.027161	10.965013
292.503510	715.758118	1004.126953	745.553528	10.332397
292.874481	729.727051	1021.439453	749.194336	6.673451
293.245422	727.572266	1028.126709	747.485413	6.625471
293.616364	724.600159	1034.442383	748.674255	7.769792
293.987213	717.912903	1029.464233	748.748535	9.897449
294.358093	718.061523	1047.073975	744.810486	8.130076
294.728943	714.940857	1060.448364	743.398743	8.236547
295.099731	711.745789	1076.720825	740.872375	7.980433
295.470490	717.467041	1094.776245	740.798157	6.183553
295.841248	720.736328	1105.773193	737.825989	4.438448
296.211975	722.073792	1118.999146	733.962219	2.995129
296.582642	719.547546	1123.902954	733.813660	3.528112
296.953308	719.770508	1133.116577	735.819824	3.882780
297.323883	724.005676	1144.410400	740.352356	3.888320
297.694519	720.364929	1144.113281	741.095398	4.892165
298.065063	719.993408	1146.565308	736.414246	3.849489
298.435608	721.107910	1139.952271	727.572266	1.543379
298.806122	729.429871	1132.447754	725.714661	-0.921847
299.176575	731.584534	1129.252808	738.420410	1.718990
299.547028	728.761047	1123.680054	742.729980	3.537164
299.917450	722.148132	1121.525269	744.736145	5.655810
300.287872	721.702332	1114.317993	735.002502	3.387580
300.658234	725.937561	1115.952515	738.271790	3.162501
301.028564	727.795166	1120.782227	741.838379	3.573454
301.398865	726.977844	1122.714111	748.599915	5.463758
301.769135	722.891113	1129.995728	749.045715	6.424541
302.139374	716.575439	1132.893555	745.702148	6.996263
302.509583	716.129639	1126.354980	741.392578	6.158308
302.879791	713.454773	1118.850464	745.256348	7.844576
303.249939	715.832458	1116.026855	747.039551	7.797983
303.620087	718.804504	1127.172241	741.838379	5.640474
303.990173	720.810730	1130.367310	734.631042	3.374457
304.360260	721.182190	1138.837891	738.866272	4.234129
304.730286	724.600159	1140.472412	744.810486	4.859744
305.100281	722.891174	1142.552856	746.668030	5.665720
305.470276	728.166687	1135.345581	738.197510	2.463493
305.840179	722.668274	1137.203125	737.751648	3.638626
306.210144	719.621887	1140.249634	732.179016	2.985331
306.579987	719.473328	1152.658081	735.151123	3.619194
306.949890	714.049133	1159.345337	733.516418	4.371761
307.319702	718.878845	1177.846680	738.197510	4.209154
307.689484	714.494934	1184.905396	735.819824	4.533252
308.059265	725.789001	1204.298462	732.996277	1.506193
308.429016	727.497986	1212.174683	731.956055	0.919803
308.798737	726.531982	1233.722412	737.157288	2.094934
309.168396	725.863281	1243.456055	740.426575	2.813658
309.538055	714.346375	1256.533325	743.993164	5.468001
309.907684	719.324646	1268.793213	741.243958	3.989184
310.277313	714.569336	1281.796143	740.278015	4.532346
310.646851	723.559875	1294.353394	738.866211	2.681589
311.016388	717.764343	1306.241821	741.764099	4.078279
311.385895	724.525818	1312.483276	752.983704	4.840127
311.755371	723.931396	1314.415039	753.949707	5.083682
312.124817	722.148132	1313.300537	749.417236	4.612872
312.494232	719.993347	1310.254272	741.318176	3.612780
312.863617	721.330811	1307.876343	740.278015	3.230304
313.232971	724.377258	1304.978638	741.392578	2.930637
313.602295	719.473328	1306.910522	733.293640	2.352645
313.971619	717.095520	1316.049805	729.727051	2.108931
314.340820	721.702332	1320.359253	731.733215	1.675565
314.710083	729.058350	1331.430542	744.959167	2.639700
315.079285	730.618652	1344.433472	751.794922	3.449944
315.448486	729.652649	1366.204102	754.023987	3.828652
315.817596	717.838562	1358.328003	748.525574	4.791182
316.186707	719.621765	1352.532349	743.993164	3.850686
316.555786	717.169739	1331.950684	735.299744	2.949019
316.924866	724.080017	1334.551147	732.104736	1.314512
317.293884	713.083191	1332.322144	742.358582	4.727640
317.662872	709.293762	1336.557251	759.522461	8.007591
318.031830	709.739563	1343.393066	758.482178	7.692314
318.400757	724.154297	1354.538574	758.779358	5.492691
318.769684	724.897278	1368.730469	747.188171	3.462216
319.138550	717.244141	1373.188599	748.599915	4.780248
319.507416	713.306152	1378.092407	732.327637	2.861293
319.876190	713.603333	1378.909790	735.894104	3.350452
320.244995	717.541321	1387.157593	744.067444	3.961392
320.613770	719.547546	1381.064819	748.228333	4.335607
320.982483	724.228699	1377.869629	743.027161	2.875962
321.351166	727.572266	1367.690063	733.144958	0.870573
321.719818	725.120178	1363.826294	735.894226	1.686855
322.088440	727.646545	1368.730347	736.860107	1.437185
322.457062	730.395752	1385.225586	741.169617	1.645292
322.825623	721.925232	1408.705200	746.222168	3.537805
323.194183	717.021179	1418.884766	748.302673	4.456919
323.562653	710.408264	1439.912476	745.999329	4.878802
323.931183	719.621826	1457.596558	739.237793	2.658081
324.299591	719.398926	1492.741821	736.265686	2.181020
324.668060	724.228699	1513.100586	740.055115	2.006209
325.036407	724.302917	1536.654663	743.101501	2.314094
325.404755	725.937683	1552.555298	742.581360	2.013468
