Jaz Data File
++++++++++++++++++++++++++++++++++++
Date: Fri Jun 04 17:00:31 2021
User: jaz
Dark Spectrum Present: Yes
Reference Spectrum Present: Yes
Processed Spectrum Present: Yes
Spectrometers: JAZA3586
Integration Time (usec): 27600 (JAZA3586)
Spectra Averaged: 10 (JAZA3586)
Boxcar Smoothing: 1 (JAZA3586)
Correct for Electrical Dark: No (JAZA3586)
Strobe/Lamp Enabled: Yes (JAZA3586)
Correct for Detector Non-linearity: No (JAZA3586)
Correct for Stray Light: No (JAZA3586)
Number of Pixels in Processed Spectrum: 2048
>>>>>Begin Processed Spectral Data<<<<<
W	D	R	S	P
191.335022	0.000000	0.000000	0.000000	0.000000
191.713211	231.675903	230.932861	228.703781	399.993835
192.091385	465.135040	462.162933	457.333252	262.500244
192.469528	702.606506	697.033875	692.798584	176.001617
192.847641	708.922302	696.959473	705.281433	30.434849
193.225739	719.473328	706.618896	720.587708	-8.669228
193.603790	726.086243	718.135742	730.767273	-58.877178
193.981842	730.692932	724.451477	732.922058	-35.714844
194.359863	736.488586	730.990173	736.785828	-5.405945
194.737854	735.596924	736.191406	731.436035	-699.917847
195.115829	734.110840	743.101563	735.002502	9.917585
195.493774	730.470032	743.250061	731.956055	11.627696
195.871704	732.104736	739.312073	739.312012	99.999153
196.249603	736.488586	745.999329	736.042786	-4.687340
196.627457	737.008606	745.330627	732.847717	-49.998531
197.005310	737.603088	743.695984	728.761047	-145.120514
197.383133	737.454529	740.872375	731.733215	-167.395264
197.760910	741.020996	746.965271	730.247131	-181.247757
198.138687	738.420410	749.194336	732.550537	-54.482212
198.516449	738.569031	749.268616	734.928223	-34.027565
198.894180	729.801270	742.804382	733.665039	29.714190
199.271866	731.956116	741.318298	728.018066	-42.063370
199.649536	734.185120	735.374023	717.244141	-1424.924316
200.027191	735.076843	741.466858	721.553711	-211.629135
200.404816	735.522644	741.243958	728.389587	-124.675156
200.782410	738.048889	759.299500	731.213074	-32.167618
201.159988	738.940613	763.980652	732.550537	-25.519432
201.537537	732.773438	768.587402	732.773438	0.000000
201.915070	718.358704	755.435791	734.333801	43.086170
202.292557	719.101746	752.017883	725.863281	20.541704
202.670029	722.965515	753.949768	729.355469	20.623230
203.047485	724.674377	760.859924	732.253357	20.944769
203.424911	728.538147	759.002258	745.330566	55.121975
203.802292	722.222473	764.203552	739.683594	41.592834
204.179688	722.816895	765.838196	742.432800	45.595798
204.557037	718.655945	772.822571	745.850769	50.205868
204.934357	727.646545	768.438782	744.587585	41.530060
205.311661	726.532043	775.646179	743.101501	33.736637
205.688934	725.863281	769.181824	736.562805	24.699640
206.066177	720.439209	765.763855	736.785828	36.065628
206.443390	720.885010	763.832031	737.231628	38.062286
206.820587	713.157532	765.392334	729.578430	31.436701
207.197769	708.550781	775.646057	730.692932	33.001057
207.574921	709.888184	768.884521	722.816895	21.914429
207.952042	709.962463	768.141602	725.120300	26.053732
208.329147	711.374207	761.528625	722.965515	23.111240
208.706223	725.417480	769.850403	734.185242	19.732578
209.083267	732.847717	768.290100	730.915955	-5.450431
209.460297	737.825989	768.513123	730.321472	-24.454929
209.837280	722.816895	754.618469	724.823059	6.308381
210.214264	714.866516	756.104492	727.720886	31.171196
210.591217	711.671570	758.259277	723.336975	25.039663
210.968124	709.368103	758.630798	724.600098	30.919937
211.345016	717.541443	761.677246	724.600098	15.993035
211.721893	717.689941	762.940369	728.538086	23.973574
212.098724	722.742615	763.906250	725.268799	6.136931
212.475555	729.206970	753.726807	735.374023	25.151281
212.852356	729.949890	747.931213	736.711487	37.603443
213.229126	728.463867	746.890930	738.717712	55.645576
213.605865	714.272034	757.218994	733.219238	44.117683
213.982590	717.987244	760.191101	731.064453	30.985815
214.359283	719.027527	765.318054	728.761047	21.027025
214.735931	725.714661	756.624695	727.869446	6.971151
215.112579	720.662109	753.503906	729.727051	27.601843
215.489197	722.148132	752.760925	725.863281	12.135936
215.865799	721.330811	760.191223	730.024231	22.370892
216.242355	714.420654	762.271667	727.423645	27.173908
216.618896	715.981018	764.352051	730.915833	30.875534
216.995407	709.665283	762.643127	721.479492	22.300283
217.371902	711.374268	757.590515	719.176086	16.881117
217.748367	712.414490	760.191101	721.107910	18.195976
218.124802	714.197754	759.002258	721.553711	16.417896
218.501236	715.683777	761.900146	725.566101	21.382736
218.877609	709.293762	758.333496	722.742493	27.424150
219.253983	706.247314	759.745300	721.999512	29.444468
219.630295	702.532227	761.379883	722.519592	33.964592
220.006592	704.538391	761.157043	724.080017	34.514465
220.382889	706.173096	757.739075	724.748718	36.023018
220.759140	712.340149	759.596680	723.782898	24.214111
221.135391	711.374207	757.441956	721.330811	21.612959
221.511581	714.717834	759.968262	722.668274	17.569866
221.887772	713.231750	760.785583	725.120300	25.000193
222.263931	711.894348	765.763855	729.355469	32.413738
222.640060	710.779785	770.519226	730.990051	33.830692
223.016159	712.340149	770.147705	732.253235	34.447201
223.392212	712.711670	773.565613	730.321472	28.937817
223.768265	714.123474	776.017578	725.937683	19.087778
224.144302	718.953125	781.293152	720.290588	2.145433
224.520294	716.649719	776.389160	717.987244	2.238930
224.896286	716.501160	765.020813	721.033630	9.341515
225.272217	714.346375	756.104492	714.717834	0.889552
225.648148	718.581543	755.510071	722.593933	10.865286
226.024048	713.306091	753.875427	722.668274	23.076992
226.399902	713.529053	756.550293	728.389587	34.542320
226.775772	708.996582	757.070496	714.866516	12.210227
227.151581	711.597168	762.494568	711.745789	0.292000
227.527374	708.625000	758.630798	714.123352	10.995429
227.903137	712.191589	750.531738	723.411316	29.263649
228.278870	722.371094	753.206726	728.240967	19.036007
228.654572	722.222473	754.544128	729.132629	21.379339
229.030273	721.776611	763.683350	721.925293	0.354792
229.405930	715.535156	769.701904	724.600098	16.735250
229.781555	711.002747	774.680176	725.937561	23.453859
230.157181	709.293762	773.119812	734.928223	40.163006
230.532761	703.869629	770.816406	730.618652	39.955654
230.908325	712.563171	775.646179	727.943848	24.381647
231.283859	713.380432	775.274597	726.309143	20.888416
231.659332	713.826233	770.370605	719.324646	9.724068
232.034821	711.597168	771.782410	724.823059	21.975306
232.410263	711.820068	775.348816	718.581604	10.643270
232.785690	711.522888	779.361145	726.680603	22.343904
233.161087	715.832458	769.256042	724.525818	16.272512
233.536469	718.358704	764.797852	731.435974	28.160013
233.911804	726.977783	756.327393	730.544434	12.152292
234.287140	722.891113	756.847473	724.823059	5.689496
234.662430	717.838623	762.123047	724.897400	15.939638
235.037704	715.386536	767.695740	716.798340	2.698959
235.412933	709.962463	775.868958	719.993347	15.219872
235.788162	705.652893	774.828674	716.129578	15.145018
236.163345	713.751953	778.841064	730.767273	26.141577
236.538513	718.730164	776.983582	726.680664	13.648127
236.913635	729.801270	774.903076	729.355530	-0.988297
237.288742	723.262695	766.506836	720.216309	-7.044623
237.663834	720.662109	760.636963	723.485596	7.063156
238.038879	717.169861	758.333557	724.971680	18.953154
238.413910	707.436218	760.488342	733.590759	49.299706
238.788910	710.779785	764.054871	731.510254	38.912128
239.163879	711.374268	771.559509	726.011902	24.320969
239.538834	715.758118	775.497498	719.696106	6.591947
239.913757	718.730286	776.983582	722.073914	5.739809
240.288651	724.525879	770.296326	723.336975	-2.597536
240.663528	716.575439	771.485168	730.915833	26.116306
241.038361	707.213318	772.005310	732.179016	38.532074
241.413177	701.343323	779.509827	734.259521	42.110363
241.787979	709.888184	783.447937	724.005676	19.191870
242.162735	714.197754	788.203308	725.714661	15.562220
242.537476	716.426819	789.912292	726.160461	13.245669
242.912170	720.067688	788.723389	721.256531	1.731601
243.286865	716.278320	781.813293	719.621887	5.101958
243.661514	708.625183	786.642883	718.878845	13.142738
244.036148	708.847961	787.608826	721.405090	15.943361
244.410751	717.021301	791.992676	726.457703	12.586673
244.785339	724.080017	789.837952	721.405090	-4.067839
245.159882	722.445313	787.014465	724.377197	2.991962
245.534378	713.380371	785.156921	714.717834	1.863371
245.908890	708.104919	788.128967	720.141907	15.041713
246.283356	706.544495	793.850281	725.417480	21.617107
246.657791	709.516663	809.973938	731.361755	21.745655
247.032196	707.956299	816.289734	727.349304	17.901218
247.406586	709.368103	823.794250	718.210144	7.727291
247.780960	714.494934	820.747864	719.547546	4.755269
248.155289	716.352539	815.992493	724.377258	8.053717
248.529602	716.798340	819.707581	735.819824	18.483747
248.903870	715.535156	817.998718	735.002502	18.999287
249.278122	722.816895	812.871765	727.572266	5.280526
249.652344	721.256531	806.110291	723.559875	2.714488
250.026550	722.593994	799.423035	721.553711	-1.354023
250.400711	720.439209	801.280579	726.086243	6.985327
250.774857	723.336914	803.732605	723.857117	0.647053
251.148987	726.383362	804.475586	724.005676	-3.044715
251.523071	721.405090	809.156555	722.445374	1.185488
251.897125	712.488831	808.785095	727.572266	15.663572
252.271164	703.944031	813.763428	721.479492	15.967545
252.645187	706.544617	813.466125	723.114075	15.496842
253.019165	712.340149	814.357849	723.634277	11.070754
253.393112	720.513489	812.500244	733.442200	14.054970
253.767044	725.491699	808.413574	731.064453	6.720487
254.140930	728.909668	803.138123	723.857117	-6.806758
254.514801	723.039795	804.772766	713.380371	-11.818271
254.888657	715.832336	808.339355	713.528992	-2.489913
255.262466	713.454773	814.506348	712.934570	-0.514789
255.636276	716.724121	815.918152	725.640320	8.988645
256.010010	724.302917	809.156555	730.618652	7.443093
256.383759	720.662109	806.927551	731.956116	13.092156
256.757446	715.163757	814.803528	728.835388	13.721058
257.131134	704.984192	827.880859	724.377258	15.779978
257.504791	706.916077	843.335876	721.033630	10.348611
257.878418	710.408386	848.091309	720.216309	7.123558
258.252014	716.203918	855.595886	723.336975	5.117265
258.625580	716.129639	856.858948	735.448303	13.727534
258.999115	718.284363	865.626709	736.414246	12.304598
259.372650	716.575439	880.784485	732.104736	9.457029
259.746124	715.980957	905.527283	720.810730	2.548070
260.119598	715.312317	932.647705	710.111084	-2.393183
260.493042	711.597168	952.486572	712.860352	0.524383
260.866425	711.894348	954.715637	720.513489	3.549582
261.239838	709.665283	939.483582	721.256531	5.043657
261.613159	713.529053	913.997742	722.742615	4.596011
261.986511	715.832458	896.462402	718.433044	1.439731
262.359802	722.371094	892.301453	724.451599	1.224328
262.733063	729.652771	893.415833	721.330811	-5.081708
263.106293	728.389587	898.245544	725.714661	-1.574821
263.479523	721.925232	898.171204	732.699036	6.112936
263.852692	713.751953	892.970032	732.922058	10.696524
264.225861	712.265869	893.044373	738.271790	14.385516
264.598969	713.380371	885.836914	730.767273	10.081903
264.972076	707.361877	894.084656	731.213074	12.773587
265.345154	707.882019	894.307556	727.646484	10.601802
265.718201	708.030701	913.774841	727.200745	9.317419
266.091217	721.330872	928.115234	729.132629	3.772895
266.464203	724.748718	931.830383	725.714661	0.466455
266.837158	714.717834	940.969666	727.646545	5.714301
267.210114	705.727234	945.725037	731.956055	10.928776
267.583038	707.882019	957.464844	734.185242	10.538876
267.955902	713.974854	956.276062	732.847656	7.788984
268.328766	717.838562	955.087158	729.429749	4.885671
268.701569	715.758118	956.053040	729.206970	5.596811
269.074371	716.724121	966.826965	725.120300	3.357091
269.447144	712.340271	976.040527	727.052185	5.579029
269.819885	711.151367	987.037354	724.154297	4.713153
270.192596	717.318542	984.436707	732.401917	5.646705
270.565277	725.640381	1002.120789	725.343201	-0.107487
270.937927	725.566101	1022.851257	725.194519	-0.124992
271.310577	725.863281	1061.562866	720.587708	-1.571516
271.683136	724.823059	1084.596802	727.646484	0.784778
272.055725	723.634216	1113.129028	732.476257	2.270131
272.428284	719.919128	1118.478882	735.151123	3.821759
272.800812	715.238037	1121.822388	729.281250	3.453948
273.173279	717.467041	1109.339600	728.092346	2.711419
273.545776	714.643555	1103.469727	724.822998	2.617993
273.918152	713.900574	1106.144653	726.086121	3.106624
274.290558	710.036804	1103.321167	729.875549	5.044377
274.662964	708.253601	1100.423340	732.030457	6.062899
275.035278	713.677551	1092.844360	740.946777	7.191881
275.407593	717.169861	1091.135376	734.408020	4.609559
275.779907	725.937683	1101.463501	736.934387	2.928348
276.152161	716.352539	1123.160034	733.516418	4.219165
276.524384	719.398926	1140.323853	734.631042	3.618725
276.896606	709.962463	1145.153564	741.615479	7.273360
277.268799	709.442383	1140.323853	742.878601	7.759957
277.640930	699.485840	1151.840820	738.791992	8.689227
278.013031	704.835632	1169.822144	730.098572	5.433048
278.385162	714.049133	1173.908691	722.296692	1.793495
278.757233	719.398926	1173.537231	721.182190	0.392670
279.129272	717.912903	1160.757080	722.742493	1.090585
279.501282	718.655945	1167.221436	724.377258	1.275469
279.873230	716.426941	1178.664063	724.897400	1.832492
280.245178	721.925232	1208.756714	719.696228	-0.457859
280.617126	723.485596	1248.954468	718.730225	-0.904977
280.988983	728.686707	1277.040894	728.315247	-0.067741
281.360870	724.377197	1302.675293	734.853943	1.811651
281.732697	721.033630	1322.142578	739.683594	3.102593
282.104492	719.101746	1353.795532	730.395752	1.779442
282.476288	721.925293	1385.894531	731.213074	1.398827
282.848053	714.346375	1404.692993	724.823059	1.517598
283.219757	708.699280	1406.476196	731.881836	3.322345
283.591461	704.909912	1393.993530	727.572266	3.288767
283.963135	704.612732	1379.355835	740.055176	5.252731
284.334747	709.145203	1378.018188	736.191406	4.043549
284.706360	713.826233	1400.012085	736.785828	3.345973
285.077942	719.919128	1433.299438	733.665039	1.926870
285.449524	717.912903	1463.614868	730.692932	1.713825
285.821014	714.197754	1495.044922	733.367859	2.455039
286.192535	717.838562	1520.679565	730.395752	1.564094
286.563995	724.674377	1544.902222	741.689758	2.074470
286.935425	721.479431	1556.196289	747.782532	3.151140
287.306824	718.358704	1554.190063	748.599915	3.618100
287.678223	706.321594	1541.707153	741.095398	4.162605
288.049561	711.820007	1511.763184	733.144958	2.665808
288.420898	706.990417	1496.085327	731.658875	3.126171
288.792145	710.259766	1495.788086	729.429749	2.440394
289.163452	706.470276	1516.146973	728.315247	2.697987
289.534668	701.120422	1539.923828	727.274963	3.118078
289.905914	700.154541	1577.075195	726.234802	2.974073
290.277039	704.389832	1608.876831	730.767273	2.916287
290.648193	711.522888	1661.334473	731.658936	2.120004
291.019318	712.117371	1696.999878	732.327637	2.052048
291.390381	707.733398	1720.776733	725.343201	1.738307
291.761475	707.807800	1721.965454	721.553711	1.355402
292.132507	715.832458	1703.241211	723.559875	0.782596
292.503510	715.163757	1691.650024	723.782776	0.882656
292.874481	718.581604	1676.789551	725.863281	0.759927
293.245422	715.980957	1681.470581	715.386536	-0.061567
293.616364	717.838562	1705.321777	720.216248	0.240782
293.987213	715.683838	1730.064453	721.776672	0.600646
294.358093	716.426819	1782.373657	732.847839	1.540510
294.728943	719.398926	1828.292603	722.148193	0.247929
295.099731	718.433105	1893.084595	719.844727	0.120174
295.470490	718.210144	1923.697388	716.055359	-0.178748
295.841248	715.089417	1941.084351	723.485596	0.684846
296.211975	723.411316	1958.248169	738.791931	1.245558
296.582642	721.850891	2006.619141	746.667969	1.931638
296.953308	721.182190	2068.736328	742.729980	1.599030
297.323883	717.095520	2116.735840	727.869446	0.769764
297.694519	720.364929	2153.070068	720.662109	0.020743
298.065063	720.364807	2162.655029	724.302917	0.273046
298.435608	715.089355	2129.218750	722.519592	0.525428
298.806122	711.448547	2063.683838	723.708496	0.906643
299.176575	708.996582	1999.114624	725.343079	1.267054
299.547028	711.299988	1973.926147	728.240967	1.341726
299.917450	703.052429	1956.464966	727.646545	1.962172
300.287872	707.138977	1948.663208	731.436035	1.957035
300.658234	705.058533	1937.146118	734.036621	2.351950
301.028564	715.981018	1937.369141	737.454590	1.758128
301.398865	717.318542	1933.133789	737.974609	1.698948
301.769135	722.296814	1931.350586	731.510254	0.762037
302.139374	712.042969	1930.979004	729.132629	1.402015
302.509583	708.773682	1938.929321	723.708496	1.214059
302.879791	712.711731	1950.966431	732.401917	1.590156
303.249939	721.182129	1948.365845	738.717590	1.428919
303.620087	721.256531	1927.932617	738.717712	1.447048
303.990173	720.067688	1900.366333	739.386414	1.636766
304.360260	724.600098	1900.589478	737.603027	1.105701
304.730286	729.875671	1913.146484	736.339905	0.546302
305.100281	726.011902	1927.115356	729.429871	0.284569
305.470276	718.061523	1943.164673	728.389587	0.843036
305.840179	714.940735	1954.681641	729.578430	1.180706
306.210144	709.962463	1970.731079	728.463867	1.467470
306.579987	713.231750	1967.833374	728.092285	1.184482
306.949890	715.014954	1986.706055	735.374023	1.600945
307.319702	717.987122	2001.046509	732.104736	1.100309
307.689484	720.216309	2022.148560	731.956116	0.901722
308.059265	716.501160	2041.467163	723.411316	0.521535
308.429016	718.135803	2088.054932	727.349304	0.672558
308.798737	709.293762	2157.008057	733.145020	1.647511
309.168396	712.934570	2223.285889	739.237793	1.741530
309.538055	712.191589	2268.684814	735.522644	1.498950
309.907684	713.974854	2287.186523	729.504089	0.987104
310.277313	709.813904	2311.929199	724.302917	0.904368
310.646851	709.813904	2325.155029	729.355469	1.209749
311.016388	711.522949	2345.588379	729.206970	1.082210
311.385895	709.962585	2345.291016	730.172852	1.235854
311.755371	710.928467	2363.866699	734.333801	1.415984
312.124817	718.433044	2368.473633	734.110840	0.950146
312.494232	724.748779	2365.575928	733.516418	0.534343
312.863617	731.807434	2342.987549	732.179016	0.023063
313.232971	722.742615	2318.988037	736.488525	0.861140
313.602295	718.358704	2306.728271	732.847717	0.912194
313.971619	710.408386	2315.198486	727.274963	1.051015
314.340820	704.687012	2328.424561	722.296692	1.084515
314.710083	700.674622	2368.622070	721.182129	1.229506
315.079285	700.154541	2396.782959	722.965515	1.344489
315.448486	709.591003	2439.878662	718.210022	0.498126
315.817596	715.758118	2431.556641	724.600159	0.515331
316.186707	714.197754	2400.052002	724.748718	0.625853
316.555786	713.454773	2338.826660	723.485596	0.617140
316.924866	714.792175	2298.331543	730.395691	0.985357
317.293884	719.993347	2280.499023	732.030334	0.771352
317.662872	726.457703	2275.818115	735.894226	0.609059
318.031830	718.953125	2280.127686	727.275085	0.533058
318.400757	714.420654	2289.638428	730.767273	1.037737
318.769684	716.055237	2320.697021	739.832214	1.481762
319.138550	718.878845	2346.925781	741.764099	1.405688
319.507416	720.736389	2373.749023	737.974609	1.042837
319.876190	704.092590	2387.718018	726.532043	1.332806
320.244995	711.151367	2386.603516	726.234863	0.900264
320.613770	711.671448	2369.736816	726.754883	0.909701
320.982483	717.169922	2345.217041	727.869446	0.657200
321.351166	716.649719	2329.167236	727.423645	0.668143
321.719818	715.981018	2307.991211	726.309082	0.648744
322.088440	723.114075	2302.641357	728.761047	0.357510
322.457062	720.290527	2319.953857	732.476257	0.761768
322.825623	725.789001	2360.597412	734.185242	0.513592
323.194183	714.643555	2414.169678	739.906494	1.486470
323.562653	710.556885	2467.964844	735.522644	1.420601
323.931183	706.247375	2534.020020	737.083008	1.687061
324.299591	710.779785	2597.697510	735.894226	1.330977
324.668060	713.751953	2668.656494	734.036621	1.037630
325.036407	713.900574	2710.860352	735.596924	1.086469
325.404755	718.953125	2740.655518	727.052063	0.400600
