Jaz Data File
++++++++++++++++++++++++++++++++++++
Date: Fri Jun 04 17:00:04 2021
User: jaz
Dark Spectrum Present: Yes
Reference Spectrum Present: Yes
Processed Spectrum Present: Yes
Spectrometers: JAZA3586
Integration Time (usec): 27600 (JAZA3586)
Spectra Averaged: 10 (JAZA3586)
Boxcar Smoothing: 1 (JAZA3586)
Correct for Electrical Dark: No (JAZA3586)
Strobe/Lamp Enabled: Yes (JAZA3586)
Correct for Detector Non-linearity: No (JAZA3586)
Correct for Stray Light: No (JAZA3586)
Number of Pixels in Processed Spectrum: 2048
>>>>>Begin Processed Spectral Data<<<<<
W	D	R	S	P
191.335022	0.000000	0.000000	0.000000	0.000000
191.713211	231.675903	230.932861	227.886429	509.994659
192.091385	465.135040	462.162933	460.528229	155.001541
192.469528	702.606506	697.033875	692.947083	173.336838
192.847641	708.922302	696.959473	705.132813	31.677202
193.225739	719.473328	706.618896	716.649719	21.966032
193.603790	726.086243	718.135742	724.748718	16.823147
193.981842	730.692932	724.451477	729.801331	14.285155
194.359863	736.488586	730.990173	730.172852	114.864685
194.737854	735.596924	736.191406	731.064453	-762.422974
195.115829	734.110840	743.101563	731.213074	-32.230625
195.493774	730.470032	743.250061	730.024231	-3.488261
195.871704	732.104736	739.312073	738.271912	85.568024
196.249603	736.488586	745.999329	734.333801	-22.656330
196.627457	737.008606	745.330627	742.952942	71.428993
197.005310	737.603088	743.695984	738.346191	12.196221
197.383133	737.454529	740.872375	738.940613	43.480125
197.760910	741.020996	746.965271	729.504150	-193.746857
198.138687	738.420410	749.194336	727.869446	-97.930550
198.516449	738.569031	749.268616	733.888000	-43.749645
198.894180	729.801270	742.804382	734.631042	37.143208
199.271866	731.956116	741.318298	740.946777	96.031685
199.649536	734.185120	735.374023	739.312012	431.228516
200.027191	735.076843	741.466858	738.123291	47.675129
200.404816	735.522644	741.243958	740.352356	84.416138
200.782410	738.048889	759.299500	741.095398	14.336101
201.159988	738.940613	763.980652	748.971436	40.059135
201.537537	732.773438	768.587402	742.061279	25.933577
201.915070	718.358704	755.435791	740.500916	59.719395
202.292557	719.101746	752.017883	737.231628	55.079010
202.670029	722.965515	753.949768	734.853943	38.369259
203.047485	724.674377	760.859924	741.169678	45.585327
203.424911	728.538147	759.002258	739.609314	36.341671
203.802292	722.222473	764.203552	745.107666	54.513111
204.179688	722.816895	765.838196	737.677429	34.542271
204.557037	718.655945	772.822571	741.763977	42.661015
204.934357	727.646545	768.438782	735.968445	20.400694
205.311661	726.532043	775.646179	737.083008	21.482540
205.688934	725.863281	769.181824	739.386414	31.217884
206.066177	720.439209	765.763855	737.751709	38.196659
206.443390	720.885010	763.832031	736.042725	35.293983
206.820587	713.157532	765.392334	728.983948	30.298605
207.197769	708.550781	775.646057	731.584656	34.330097
207.574921	709.888184	768.884521	723.559875	23.173798
207.952042	709.962463	768.141602	715.683838	9.834065
208.329147	711.374207	761.528625	714.866455	6.962993
208.706223	725.417480	769.850403	727.795105	5.351042
209.083267	732.847717	768.290100	728.983948	-10.901551
209.460297	737.825989	768.513123	729.429749	-27.360783
209.837280	722.816895	754.618469	717.838562	-15.654359
210.214264	714.866516	756.104492	724.971619	24.504360
210.591217	711.671570	758.259277	719.547546	16.905697
210.968124	709.368103	758.630798	723.559875	28.808355
211.345016	717.541443	761.677246	719.027405	3.366795
211.721893	717.689941	762.940369	725.268860	16.748833
212.098724	722.742615	763.906250	726.606262	9.386069
212.475555	729.206970	753.726807	730.098450	3.635748
212.852356	729.949890	747.931213	732.030457	11.570708
213.229126	728.463867	746.890930	735.448425	37.903805
213.605865	714.272034	757.218994	739.906555	59.688789
213.982590	717.987244	760.191101	736.265686	43.309887
214.359283	719.027527	765.318054	735.968445	36.596943
214.735931	725.714661	756.624695	722.445374	-10.576782
215.112579	720.662109	753.503906	721.256531	1.809954
215.489197	722.148132	752.760925	717.467102	-15.291092
215.865799	721.330811	760.191223	721.479431	0.382447
216.242355	714.420654	762.271667	719.919128	11.490821
216.618896	715.981018	764.352051	723.485596	15.514611
216.995407	709.665283	762.643127	725.565979	30.013859
217.371902	711.374268	757.590515	727.795166	35.530575
217.748367	712.414490	760.191101	721.330811	18.662523
218.124802	714.197754	759.002258	720.587830	14.262128
218.501236	715.683777	761.900146	713.083191	-5.626980
218.877609	709.293762	758.333496	720.216309	22.272850
219.253983	706.247314	759.745300	725.417480	35.833435
219.630295	702.532227	761.379883	739.609314	63.005207
220.006592	704.538391	761.157043	736.339905	56.167912
220.382889	706.173096	757.739075	729.355469	44.956722
220.759140	712.340149	759.596680	726.829285	30.660601
221.135391	711.374207	757.441956	723.485657	26.290518
221.511581	714.717834	759.968262	721.330872	14.614308
221.887772	713.231750	760.785583	715.758118	5.312647
222.263931	711.894348	765.763855	720.587830	16.138039
222.640060	710.779785	770.519226	729.652649	31.591967
223.016159	712.340149	770.147705	728.983948	28.791737
223.392212	712.711670	773.565613	730.767273	29.670391
223.768265	714.123474	776.017578	728.761047	23.649382
224.144302	718.953125	781.293152	734.631042	25.149038
224.520294	716.649719	776.389160	724.674500	13.432968
224.896286	716.501160	765.020813	720.959290	9.188297
225.272217	714.346375	756.104492	718.061523	8.896831
225.648148	718.581543	755.510071	730.321472	31.790949
226.024048	713.306091	753.875427	727.572266	35.164921
226.399902	713.529053	756.550293	728.463867	34.714977
226.775772	708.996582	757.070496	720.290588	23.493004
227.151581	711.597168	762.494568	719.176025	14.890461
227.527374	708.625000	758.630798	716.501160	15.750493
227.903137	712.191589	750.531738	728.612488	42.829510
228.278870	722.371094	753.206726	743.027161	66.987656
228.654572	722.222473	754.544128	745.627747	72.413597
229.030273	721.776611	763.683350	731.138855	22.340664
229.405930	715.535156	769.701904	729.058289	24.965746
229.781555	711.002747	774.680176	737.008728	40.840187
230.157181	709.293762	773.119812	748.079834	60.768402
230.532761	703.869629	770.816406	747.262512	64.816986
230.908325	712.563171	775.646179	736.340027	37.691380
231.283859	713.380432	775.274597	733.219238	32.052788
231.659332	713.826233	770.370605	724.228577	18.396780
232.034821	711.597168	771.782410	725.417480	22.962959
232.410263	711.820068	775.348816	721.405090	15.087692
232.785690	711.522888	779.361145	726.086243	21.467760
233.161087	715.832458	769.256042	726.977844	20.862295
233.536469	718.358704	764.797852	726.829285	18.240173
233.911804	726.977783	756.327393	731.213074	14.430484
234.287140	722.891113	756.847473	728.092346	15.317404
234.662430	717.838623	762.123047	726.531982	19.630739
235.037704	715.386536	767.695740	718.432922	5.823806
235.412933	709.962463	775.868958	719.250305	14.092453
235.788162	705.652893	774.828674	722.742676	24.704865
236.163345	713.751953	778.841064	722.891296	14.041278
236.538513	718.730164	776.983582	726.829285	13.903255
236.913635	729.801270	774.903076	724.154297	-12.520502
237.288742	723.262695	766.506836	728.389648	11.855833
237.663834	720.662109	760.636963	726.086243	13.568864
238.038879	717.169861	758.333557	732.253235	36.642418
238.413910	707.436218	760.488342	724.748718	32.632999
238.788910	710.779785	764.054871	726.234802	29.009840
239.163879	711.374268	771.559509	718.581543	11.975154
239.538834	715.758118	775.497498	723.559875	13.059656
239.913757	718.730286	776.983582	719.547546	1.402943
240.288651	724.525879	770.296326	727.943787	7.467499
240.663528	716.575439	771.485168	732.401917	28.822720
241.038361	707.213318	772.005310	740.798096	51.834766
241.413177	701.343323	779.509827	736.488525	44.961975
241.787979	709.888184	783.447937	731.733154	29.696905
242.162735	714.197754	788.203308	729.726990	20.983879
242.537476	716.426819	789.912292	729.281250	17.492479
242.912170	720.067688	788.723389	727.423645	10.714270
243.286865	716.278320	781.813293	726.680664	15.872966
243.661514	708.625183	786.642883	727.795166	24.571325
244.036148	708.847961	787.608826	731.361633	28.584846
244.410751	717.021301	791.992676	723.931396	9.216978
244.785339	724.080017	789.837952	718.433044	-8.587515
245.159882	722.445313	787.014465	720.959290	-2.301444
245.534378	713.380371	785.156921	727.423645	19.565268
245.908890	708.104919	788.128967	738.420410	37.882977
246.283356	706.544495	793.850281	735.299744	32.936245
246.657791	709.516663	809.973938	741.095398	31.434990
247.032196	707.956299	816.289734	734.928223	24.897137
247.406586	709.368103	823.794250	732.773438	20.454533
247.780960	714.494934	820.747864	725.937561	10.769235
248.155289	716.352539	815.992493	727.572266	11.260269
248.529602	716.798340	819.707581	726.086182	9.025275
248.903870	715.535156	817.998718	723.857117	8.121873
249.278122	722.816895	812.871765	721.925232	-0.990133
249.652344	721.256531	806.110291	729.578430	9.807343
250.026550	722.593994	799.423035	733.739441	14.506815
250.400711	720.439209	801.280579	730.915833	12.959483
250.774857	723.336914	803.732605	728.984070	7.024202
251.148987	726.383362	804.475586	725.937561	-0.570864
251.523071	721.405090	809.156555	719.473328	-2.201402
251.897125	712.488831	808.785095	716.426819	4.089451
252.271164	703.944031	813.763428	715.683838	10.690104
252.645187	706.544617	813.466125	722.371094	14.801958
253.019165	712.340149	814.357849	721.553711	9.031337
253.393112	720.513489	812.500244	720.216309	-0.323068
253.767044	725.491699	808.413574	721.999512	-4.211419
254.140930	728.909668	803.138123	722.742493	-8.308371
254.514801	723.039795	804.772766	723.559875	0.636317
254.888657	715.832336	808.339355	727.720886	12.851511
255.262466	713.454773	814.506348	731.807434	18.161678
255.636276	716.724121	815.918152	739.386414	22.846428
256.010010	724.302917	809.156555	736.488586	14.360809
256.383759	720.662109	806.927551	734.036621	15.503904
256.757446	715.163757	814.803528	733.219238	18.120758
257.131134	704.984192	827.880859	735.819824	25.090698
257.504791	706.916077	843.335876	741.243896	25.163370
257.878418	710.408386	848.091309	741.169678	22.342125
258.252014	716.203918	855.595886	740.129395	17.164171
258.625580	716.129639	856.858948	739.163513	16.367504
258.999115	718.284363	865.626709	732.847839	9.884108
259.372650	716.575439	880.784485	733.070618	10.045231
259.746124	715.980957	905.527283	729.652832	7.212946
260.119598	715.312317	932.647705	726.532043	5.162402
260.493042	711.597168	952.486572	724.674500	5.428770
260.866425	711.894348	954.715637	723.857178	4.926599
261.239838	709.665283	939.483582	723.262695	5.916593
261.613159	713.529053	913.997742	722.296814	4.373631
261.986511	715.832458	896.462402	717.541321	0.946057
262.359802	722.371094	892.301453	721.925293	-0.262343
262.733063	729.652771	893.415833	720.439209	-5.626154
263.106293	728.389587	898.245544	720.662109	-4.549430
263.479523	721.925232	898.171204	727.943665	3.414792
263.852692	713.751953	892.970032	726.680603	7.213921
264.225861	712.265869	893.044373	725.343079	7.233830
264.598969	713.380371	885.836914	717.095520	2.154252
264.972076	707.361877	894.084656	718.878723	6.167885
265.345154	707.882019	894.307556	722.816833	8.011142
265.718201	708.030701	913.774841	728.018005	9.714641
266.091217	721.330872	928.115234	732.922058	5.605446
266.464203	724.748718	931.830383	740.723816	7.714395
266.837158	714.717834	940.969666	732.699158	7.947482
267.210114	705.727234	945.725037	730.098450	10.154766
267.583038	707.882019	957.464844	717.318420	3.780870
267.955902	713.974854	956.276062	720.885010	2.851887
268.328766	717.838562	955.087158	719.770508	0.814313
268.701569	715.758118	956.053040	720.885071	2.133609
269.074371	716.724121	966.826965	722.445374	2.287560
269.447144	712.340271	976.040527	728.389587	6.086197
269.819885	711.151367	987.037354	741.169617	10.880672
270.192596	717.318542	984.436707	738.197571	7.816401
270.565277	725.640381	1002.120789	733.516418	2.848678
270.937927	725.566101	1022.851257	728.092346	0.849772
271.310577	725.863281	1061.562866	724.080017	-0.531208
271.683136	724.823059	1084.596802	721.405090	-0.950033
272.055725	723.634216	1113.129028	719.770447	-0.991995
272.428284	719.919128	1118.478882	728.018066	2.032051
272.800812	715.238037	1121.822388	728.240906	3.198074
273.173279	717.467041	1109.339600	727.497864	2.559716
273.545776	714.643555	1103.469727	729.652649	3.860104
273.918152	713.900574	1106.144653	734.853943	5.341921
274.290558	710.036804	1103.321167	741.764099	8.067266
274.662964	708.253601	1100.423340	736.340027	7.161803
275.035278	713.677551	1092.844360	736.340027	5.976914
275.407593	717.169861	1091.135376	734.556702	4.649317
275.779907	725.937683	1101.463501	735.448303	2.532614
276.152161	716.352539	1123.160034	734.631042	4.493158
276.524384	719.398926	1140.323853	733.516418	3.353922
276.896606	709.962463	1145.153564	740.203796	6.948978
277.268799	709.442383	1140.323853	737.825989	6.587335
277.640930	699.485840	1151.840820	737.008728	8.295010
278.013031	704.835632	1169.822144	727.423645	4.857778
278.385162	714.049133	1173.908691	726.829285	2.779142
278.757233	719.398926	1173.537231	727.646667	1.816130
279.129272	717.912903	1160.757080	734.259583	3.691294
279.501282	718.655945	1167.221436	739.237793	4.588371
279.873230	716.426941	1178.664063	739.683594	5.031325
280.245178	721.925232	1208.756714	733.590820	2.396227
280.617126	723.485596	1248.954468	726.234802	0.523191
280.988983	728.686707	1277.040894	724.302979	-0.799434
281.360870	724.377197	1302.675293	730.915833	1.130669
281.732697	721.033630	1322.142578	731.733215	1.779974
282.104492	719.101746	1353.795532	724.823059	0.901429
282.476288	721.925293	1385.894531	727.497986	0.839300
282.848053	714.346375	1404.692993	729.504089	2.195667
283.219757	708.699280	1406.476196	731.213074	3.226503
283.591461	704.909912	1393.993530	718.433044	1.962481
283.963135	704.612732	1379.355835	723.634277	2.819080
284.334747	709.145203	1378.018188	725.714661	2.477220
284.706360	713.826233	1400.012085	734.036621	2.945323
285.077942	719.919128	1433.299438	723.857117	0.552018
285.449524	717.912903	1463.614868	722.891174	0.667595
285.821014	714.197754	1495.044922	728.018066	1.769913
286.192535	717.838562	1520.679565	738.643311	2.591391
286.563995	724.674377	1544.902222	741.763977	2.083519
286.935425	721.479431	1556.196289	733.665039	1.459849
287.306824	718.358704	1554.190063	729.652771	1.351238
287.678223	706.321594	1541.707153	732.922058	3.184214
288.049561	711.820007	1511.763184	732.030334	2.526470
288.420898	706.990417	1496.085327	736.117004	3.691139
288.792145	710.259766	1495.788086	737.825989	3.509259
289.163452	706.470276	1516.146973	741.764099	4.359002
289.534668	701.120422	1539.923828	731.436035	3.614150
289.905914	700.154541	1577.075195	724.451477	2.770711
290.277039	704.389832	1608.876831	716.946960	1.388315
290.648193	711.522888	1661.334473	725.491699	1.470693
291.019318	712.117371	1696.999878	730.841553	1.901159
291.390381	707.733398	1720.776733	740.649597	3.249239
291.761475	707.807800	1721.965454	736.117004	2.791401
292.132507	715.832458	1703.241211	733.813660	1.821049
292.503510	715.163757	1691.650024	731.287415	1.651191
292.874481	718.581604	1676.789551	736.785828	1.899820
293.245422	715.980957	1681.470581	733.888000	1.854711
293.616364	717.838562	1705.321777	735.299744	1.768251
293.987213	715.683838	1730.064453	732.773438	1.684732
294.358093	716.426819	1782.373657	730.247070	1.296524
294.728943	719.398926	1828.292603	732.104675	1.145804
295.099731	718.433105	1893.084595	726.011902	0.645195
295.470490	718.210144	1923.697388	733.442078	1.263550
295.841248	715.089417	1941.084351	731.956055	1.375751
296.211975	723.411316	1958.248169	733.665039	0.830371
296.582642	721.850891	2006.619141	733.962341	0.942695
296.953308	721.182190	2068.736328	731.064453	0.733348
297.323883	717.095520	2116.735840	734.185242	1.221008
297.694519	720.364929	2153.070068	722.816833	0.171138
298.065063	720.364807	2162.655029	718.878845	-0.103028
298.435608	715.089355	2129.218750	716.798340	0.120851
298.806122	711.448547	2063.683838	727.646484	1.197864
299.176575	708.996582	1999.114624	740.203674	2.418933
299.547028	711.299988	1973.926147	747.039551	2.830574
299.917450	703.052429	1956.464966	742.581360	3.153705
300.287872	707.138977	1948.663208	739.609192	2.615351
300.658234	705.058533	1937.146118	730.098572	2.032326
301.028564	715.981018	1937.369141	734.631042	1.526953
301.398865	717.318542	1933.133789	736.339905	1.564494
301.769135	722.296814	1931.350586	742.729980	1.690013
302.139374	712.042969	1930.979004	739.014893	2.212743
302.509583	708.773682	1938.929321	733.590820	2.017398
302.879791	712.711731	1950.966431	727.646545	1.206118
303.249939	721.182129	1948.365845	730.990234	0.799237
303.620087	721.256531	1927.932617	728.389648	0.591138
303.990173	720.067688	1900.366333	726.977844	0.585458
304.360260	724.600098	1900.589478	725.937683	0.113741
304.730286	729.875671	1913.146484	730.024231	0.012555
305.100281	726.011902	1927.115356	736.711426	0.890808
305.470276	718.061523	1943.164673	729.355469	0.921877
305.840179	714.940735	1954.681641	725.863281	0.881035
306.210144	709.962463	1970.731079	725.268860	1.214053
306.579987	713.231750	1967.833374	725.491699	0.977199
306.949890	715.014954	1986.706055	723.262695	0.648565
307.319702	717.987122	2001.046509	717.541321	-0.034745
307.689484	720.216309	2022.148560	722.891113	0.205449
308.059265	716.501160	2041.467163	726.531982	0.757063
308.429016	718.135803	2088.054932	728.686768	0.770189
308.798737	709.293762	2157.008057	720.364929	0.764734
309.168396	712.934570	2223.285889	720.067688	0.472282
309.538055	712.191589	2268.684814	726.606262	0.926099
309.907684	713.974854	2287.186523	728.092346	0.897368
310.277313	709.813904	2311.929199	732.996338	1.446989
310.646851	709.813904	2325.155029	729.504150	1.218953
311.016388	711.522949	2345.588379	735.299805	1.455074
311.385895	709.962585	2345.291016	730.247070	1.240392
311.755371	710.928467	2363.866699	732.847717	1.326078
312.124817	718.433044	2368.473633	737.380188	1.148283
312.494232	724.748779	2365.575928	741.021057	0.991712
312.863617	731.807434	2342.987549	743.473083	0.724044
313.232971	722.742615	2318.988037	734.110901	0.712189
313.602295	718.358704	2306.728271	731.510254	0.827991
313.971619	710.408386	2315.198486	724.525879	0.879710
314.340820	704.687012	2328.424561	728.389648	1.459758
314.710083	700.674622	2368.622070	732.401855	1.902172
315.079285	700.154541	2396.782959	738.123230	2.237891
315.448486	709.591003	2439.878662	744.141785	1.996823
315.817596	715.758118	2431.556641	741.243958	1.485363
316.186707	714.197754	2400.052002	740.129395	1.538190
316.555786	713.454773	2338.826660	734.333801	1.284569
316.924866	714.792175	2298.331543	739.980774	1.590652
317.293884	719.993347	2280.499023	743.844482	1.528424
317.662872	726.457703	2275.818115	746.370850	1.285250
318.031830	718.953125	2280.127686	737.157288	1.166056
318.400757	714.420654	2289.638428	729.578430	0.962265
318.769684	716.055237	2320.697021	736.414246	1.268757
319.138550	718.878845	2346.925781	747.782532	1.775360
319.507416	720.736389	2373.749023	748.154114	1.658652
319.876190	704.092590	2387.718018	743.621582	2.347849
320.244995	711.151367	2386.603516	732.104736	1.250610
320.613770	711.671448	2369.736816	735.894226	1.460906
320.982483	717.169922	2345.217041	726.457703	0.570486
321.351166	716.649719	2329.167236	724.302917	0.474612
321.719818	715.981018	2307.991211	719.473206	0.219357
322.088440	723.114075	2302.641357	725.045959	0.122308
322.457062	720.290527	2319.953857	729.281250	0.562038
322.825623	725.789001	2360.597412	729.058289	0.199980
323.194183	714.643555	2414.169678	730.470032	0.931229
323.562653	710.556885	2467.964844	730.395691	1.128867
323.931183	706.247375	2534.020020	733.962219	1.516318
324.299591	710.779785	2597.697510	729.652771	1.000202
324.668060	713.751953	2668.656494	726.680664	0.661347
325.036407	713.900574	2710.860352	724.228699	0.517192
325.404755	718.953125	2740.655518	731.287415	0.610094
