Jaz Data File
++++++++++++++++++++++++++++++++++++
Date: Fri Jun 04 17:00:25 2021
User: jaz
Dark Spectrum Present: Yes
Reference Spectrum Present: Yes
Processed Spectrum Present: Yes
Spectrometers: JAZA3586
Integration Time (usec): 27600 (JAZA3586)
Spectra Averaged: 10 (JAZA3586)
Boxcar Smoothing: 1 (JAZA3586)
Correct for Electrical Dark: No (JAZA3586)
Strobe/Lamp Enabled: Yes (JAZA3586)
Correct for Detector Non-linearity: No (JAZA3586)
Correct for Stray Light: No (JAZA3586)
Number of Pixels in Processed Spectrum: 2048
>>>>>Begin Processed Spectral Data<<<<<
W	D	R	S	P
191.335022	0.000000	0.000000	0.000000	0.000000
191.713211	231.675903	230.932861	227.217728	599.989746
192.091385	465.135040	462.162933	460.974091	140.000000
192.469528	702.606506	697.033875	697.851135	85.334381
192.847641	708.922302	696.959473	708.922180	0.001020
193.225739	719.473328	706.618896	713.826233	43.931114
193.603790	726.086243	718.135742	719.398926	84.111900
193.981842	730.692932	724.451477	719.770447	174.999023
194.359863	736.488586	730.990173	724.897278	210.811890
194.737854	735.596924	736.191406	725.268860	-1737.320313
195.115829	734.110840	743.101563	724.451599	-107.435646
195.493774	730.470032	743.250061	724.748718	-44.767609
195.871704	732.104736	739.312073	728.389587	-51.546768
196.249603	736.488586	745.999329	735.745544	-7.812660
196.627457	737.008606	745.330627	735.596985	-16.962479
197.005310	737.603088	743.695984	739.460693	30.488049
197.383133	737.454529	740.872375	743.844543	186.960251
197.760910	741.020996	746.965271	744.067444	51.250114
198.138687	738.420410	749.194336	750.829041	115.172783
198.516449	738.569031	749.268616	746.222229	71.527992
198.894180	729.801270	742.804382	746.965271	131.999176
199.271866	731.956116	741.318298	735.076843	33.333332
199.649536	734.185120	735.374023	729.801270	-368.730438
200.027191	735.076843	741.466858	732.104736	-46.511738
200.404816	735.522644	741.243958	727.720764	-136.365189
200.782410	738.048889	759.299500	733.293518	-22.377575
201.159988	738.940613	763.980652	723.634216	-61.127686
201.537537	732.773438	768.587402	726.011902	-18.879606
201.915070	718.358704	755.435791	723.931458	15.030183
202.292557	719.101746	752.017883	731.733215	38.374702
202.670029	722.965515	753.949768	740.055115	55.155758
203.047485	724.674377	760.859924	743.695984	52.566860
203.424911	728.538147	759.002258	743.027283	47.561329
203.802292	722.222473	764.203552	732.253357	23.893820
204.179688	722.816895	765.838196	734.853943	27.979275
204.557037	718.655945	772.822571	738.123230	35.939629
204.934357	727.646545	768.438782	743.324402	38.433434
205.311661	726.532043	775.646179	734.928223	17.095240
205.688934	725.863281	769.181824	733.367859	17.324169
206.066177	720.439209	765.763855	726.383484	13.114884
206.443390	720.885010	763.832031	726.234802	12.456725
206.820587	713.157532	765.392334	727.200745	26.884783
207.197769	708.550781	775.646057	733.962219	37.873661
207.574921	709.888184	768.884521	730.395752	34.760750
207.952042	709.962463	768.141602	727.275085	29.757441
208.329147	711.374207	761.528625	720.513489	18.222286
208.706223	725.417480	769.850403	737.380188	26.923071
209.083267	732.847717	768.290100	736.711426	10.901379
209.460297	737.825989	768.513123	737.825989	0.000000
209.837280	722.816895	754.618469	726.457703	11.448515
210.214264	714.866516	756.104492	722.593933	18.738594
210.591217	711.671570	758.259277	726.531982	31.897711
210.968124	709.368103	758.630798	723.857117	29.411736
211.345016	717.541443	761.677246	722.371033	10.942567
211.721893	717.689941	762.940369	722.073914	9.688245
212.098724	722.742615	763.906250	727.126465	10.649813
212.475555	729.206970	753.726807	730.767273	6.363431
212.852356	729.949890	747.931213	730.247131	1.653055
213.229126	728.463867	746.890930	725.120300	-18.144871
213.605865	714.272034	757.218994	723.559875	21.626308
213.982590	717.987244	760.191101	724.154297	14.612535
214.359283	719.027527	765.318054	728.686829	20.866692
214.735931	725.714661	756.624695	730.247131	14.663428
215.112579	720.662109	753.503906	727.572266	21.040737
215.489197	722.148132	752.760925	727.795105	18.446447
215.865799	721.330811	760.191223	723.336975	5.162489
216.242355	714.420654	762.271667	724.971680	22.049744
216.618896	715.981018	764.352051	718.507324	5.222766
216.995407	709.665283	762.643127	714.569275	9.256684
217.371902	711.374268	757.590515	712.488770	2.411494
217.748367	712.414490	760.191101	711.076965	-2.799538
218.124802	714.197754	759.002258	716.055359	4.146023
218.501236	715.683777	761.900146	713.083252	-5.626848
218.877609	709.293762	758.333496	717.615723	16.969831
219.253983	706.247314	759.745300	722.593933	30.555578
219.630295	702.532227	761.379883	720.142029	29.924391
220.006592	704.538391	761.157043	719.696106	26.771593
220.382889	706.173096	757.739075	723.857117	34.293968
220.759140	712.340149	759.596680	734.110901	46.069298
221.135391	711.374207	757.441956	734.333801	49.838760
221.511581	714.717834	759.968262	733.962219	42.528625
221.887772	713.231750	760.785583	734.853821	45.468616
222.263931	711.894348	765.763855	737.603088	47.724106
222.640060	710.779785	770.519226	733.219238	37.562206
223.016159	712.340149	770.147705	732.996338	35.732681
223.392212	712.711670	773.565613	730.470032	29.181942
223.768265	714.123474	776.017578	728.538147	23.289251
224.144302	718.953125	781.293152	724.228577	8.462382
224.520294	716.649719	776.389160	722.519592	9.825791
224.896286	716.501160	765.020813	721.776611	10.872814
225.272217	714.346375	756.104492	726.160583	28.292006
225.648148	718.581543	755.510071	726.160583	20.523539
226.024048	713.306091	753.875427	729.950012	41.025864
226.399902	713.529053	756.550293	726.160461	29.360867
226.775772	708.996582	757.070496	725.194580	33.693947
227.151581	711.597168	762.494568	723.411316	23.211693
227.527374	708.625000	758.630798	726.086182	34.918312
227.903137	712.191589	750.531738	728.835449	43.411045
228.278870	722.371094	753.206726	732.550537	33.011948
228.654572	722.222473	754.544128	727.423645	16.091911
229.030273	721.776611	763.683350	735.968445	33.865276
229.405930	715.535156	769.701904	732.327637	31.001455
229.781555	711.002747	774.680176	734.185242	36.406143
230.157181	709.293762	773.119812	723.114075	21.653091
230.532761	703.869629	770.816406	721.405090	26.193138
230.908325	712.563171	775.646179	726.383484	21.908138
231.283859	713.380432	775.274597	725.417480	19.447792
231.659332	713.826233	770.370605	728.686829	26.281300
232.034821	711.597168	771.782410	722.742493	18.518368
232.410263	711.820068	775.348816	721.330811	14.970769
232.785690	711.522888	779.361145	721.256531	14.348309
233.161087	715.832458	769.256042	721.850891	11.265498
233.536469	718.358704	764.797852	720.662109	4.960052
233.911804	726.977783	756.327393	717.615662	-31.898624
234.287140	722.891113	756.847473	714.123474	-25.820314
234.662430	717.838623	762.123047	721.776672	8.892629
235.037704	715.386536	767.695740	720.142029	9.091122
235.412933	709.962463	775.868958	727.646545	26.832079
235.788162	705.652893	774.828674	721.925293	23.523262
236.163345	713.751953	778.841064	728.240967	22.260273
236.538513	718.730164	776.983582	723.931396	8.928631
236.913635	729.801270	774.903076	735.299744	12.191250
237.288742	723.262695	766.506836	737.231628	32.302486
237.663834	720.662109	760.636963	735.671326	37.546646
238.038879	717.169861	758.333557	734.556702	42.238289
238.413910	707.436218	760.488342	726.977844	36.834766
238.788910	710.779785	764.054871	728.018066	32.357117
239.163879	711.374268	771.559509	722.593994	18.641989
239.538834	715.758118	775.497498	722.891113	11.940190
239.913757	718.730286	776.983582	723.559814	8.290567
240.288651	724.525879	770.296326	725.714661	2.597269
240.663528	716.575439	771.485168	730.024231	24.492548
241.038361	707.213318	772.005310	731.361633	37.270523
241.413177	701.343323	779.509827	729.429871	35.931694
241.787979	709.888184	783.447937	725.417480	21.111132
242.162735	714.197754	788.203308	723.485596	12.550196
242.537476	716.426819	789.912292	719.844727	4.651134
242.912170	720.067688	788.723389	720.587708	0.757431
243.286865	716.278320	781.813293	720.067627	5.782114
243.661514	708.625183	786.642883	726.829163	23.333139
244.036148	708.847961	787.608826	725.120300	20.660437
244.410751	717.021301	791.992676	721.553711	6.045520
244.785339	724.080017	789.837952	718.953125	-7.796614
245.159882	722.445313	787.014465	716.575378	-9.090926
245.534378	713.380371	785.156921	727.274963	19.358122
245.908890	708.104919	788.128967	725.268860	21.448479
246.283356	706.544495	793.850281	729.429871	26.212896
246.657791	709.516663	809.973938	725.120300	15.532611
247.032196	707.956299	816.289734	733.813721	23.868366
247.406586	709.368103	823.794250	733.813721	21.363665
247.780960	714.494934	820.747864	736.860168	21.049051
248.155289	716.352539	815.992493	736.265686	19.985102
248.529602	716.798340	819.707581	731.658875	14.440428
248.903870	715.535156	817.998718	730.321472	14.430804
249.278122	722.816895	812.871765	717.690002	-5.693076
249.652344	721.256531	806.110291	718.433044	-3.327473
250.026550	722.593994	799.423035	712.414551	-13.249474
250.400711	720.439209	801.280579	720.364929	-0.091883
250.774857	723.336914	803.732605	723.411316	0.092545
251.148987	726.383362	804.475586	726.086243	-0.380472
251.523071	721.405090	809.156555	720.662109	-0.846688
251.897125	712.488831	808.785095	722.519714	10.416691
252.271164	703.944031	813.763428	721.776672	16.238153
252.645187	706.544617	813.466125	719.176086	11.813778
253.019165	712.340149	814.357849	721.405090	8.885655
253.393112	720.513489	812.500244	721.330811	0.888521
253.767044	725.491699	808.413574	722.222412	-3.942611
254.140930	728.909668	803.138123	721.182190	-10.410398
254.514801	723.039795	804.772766	718.210144	-5.909060
254.888657	715.832336	808.339355	721.107910	5.702890
255.262466	713.454773	814.506348	724.079895	10.514554
255.636276	716.724121	815.918152	725.863281	9.213417
256.010010	724.302917	809.156555	729.281189	5.866892
256.383759	720.662109	806.927551	725.937561	6.115371
256.757446	715.163757	814.803528	728.612488	13.497352
257.131134	704.984192	827.880859	725.194519	16.444975
257.504791	706.916077	843.335876	726.160461	14.106739
257.878418	710.408386	848.091309	726.383301	11.602684
258.252014	716.203918	855.595886	730.098450	9.967957
258.625580	716.129639	856.858948	728.686707	8.922852
258.999115	718.284363	865.626709	736.562805	12.405424
259.372650	716.575439	880.784485	737.454529	12.714945
259.746124	715.980957	905.527283	734.853821	9.956861
260.119598	715.312317	932.647705	726.531921	5.162346
260.493042	711.597168	952.486572	723.782776	5.058590
260.866425	711.894348	954.715637	723.782776	4.895958
261.239838	709.665283	939.483582	723.931458	6.207589
261.613159	713.529053	913.997742	721.702332	4.077085
261.986511	715.832458	896.462402	723.634094	4.319127
262.359802	722.371094	892.301453	725.640320	1.923862
262.733063	729.652771	893.415833	730.990173	0.816669
263.106293	728.389587	898.245544	729.281189	0.524916
263.479523	721.925232	898.171204	728.463867	3.709949
263.852692	713.751953	892.970032	722.742615	5.016604
264.225861	712.265869	893.044373	728.909668	9.206736
264.598969	713.380371	885.836914	734.110840	12.020691
264.972076	707.361877	894.084656	735.894104	15.280528
265.345154	707.882019	894.307556	734.036621	14.029517
265.718201	708.030701	913.774841	732.922058	12.098209
266.091217	721.330872	928.115234	733.590820	5.928857
266.464203	724.748718	931.830383	735.225403	5.059204
266.837158	714.717834	940.969666	734.333801	8.669971
267.210114	705.727234	945.725037	740.798157	14.613018
267.583038	707.882019	957.464844	741.912659	13.635009
267.955902	713.974854	956.276062	742.358459	11.714183
268.328766	717.838562	955.087158	735.225403	7.328533
268.701569	715.758118	956.053040	730.395752	6.091529
269.074371	716.724121	966.826965	722.965515	2.495531
269.447144	712.340271	976.040527	718.953125	2.507716
269.819885	711.151367	987.037354	715.312256	1.508191
270.192596	717.318542	984.436707	718.581604	0.472847
270.565277	725.640381	1002.120789	722.371094	-1.182466
270.937927	725.566101	1022.851257	727.646545	0.699814
271.310577	725.863281	1061.562866	729.206970	0.996036
271.683136	724.823059	1084.596802	735.299744	2.912020
272.055725	723.634216	1113.129028	732.847717	2.365500
272.428284	719.919128	1118.478882	733.070618	3.299753
272.800812	715.238037	1121.822388	733.367859	4.459055
273.173279	717.467041	1109.339600	729.949890	3.185436
273.545776	714.643555	1103.469727	731.510254	4.337851
273.918152	713.900574	1106.144653	729.949951	4.091681
274.290558	710.036804	1103.321167	733.665100	6.007942
274.662964	708.253601	1100.423340	730.098450	5.570253
275.035278	713.677551	1092.844360	725.640320	3.155015
275.407593	717.169861	1091.135376	726.977844	2.622697
275.779907	725.937683	1101.463501	728.835449	0.771656
276.152161	716.352539	1123.160034	728.389587	2.958905
276.524384	719.398926	1140.323853	730.024231	2.524276
276.896606	709.962463	1145.153564	734.110840	5.548913
277.268799	709.442383	1140.323853	735.448303	6.035516
277.640930	699.485840	1151.840820	732.624817	7.325879
278.013031	704.835632	1169.822144	730.247253	5.465024
278.385162	714.049133	1173.908691	732.847717	4.087897
278.757233	719.398926	1173.537231	731.658875	2.699607
279.129272	717.912903	1160.757080	727.275085	2.114103
279.501282	718.655945	1167.221436	721.702332	0.679140
279.873230	716.426941	1178.664063	724.823059	1.816409
280.245178	721.925232	1208.756714	729.281250	1.510999
280.617126	723.485596	1248.954468	730.618652	1.357465
280.988983	728.686707	1277.040894	724.525879	-0.758785
281.360870	724.377197	1302.675293	725.863281	0.256975
281.732697	721.033630	1322.142578	722.891174	0.309020
282.104492	719.101746	1353.795532	729.875671	1.697500
282.476288	721.925293	1385.894531	727.423645	0.828103
282.848053	714.346375	1404.692993	734.408142	2.906043
283.219757	708.699280	1406.476196	739.832214	4.461732
283.591461	704.909912	1393.993530	744.959045	5.811941
283.963135	704.612732	1379.355835	744.661926	5.935473
284.334747	709.145203	1378.018188	734.259521	3.754722
284.706360	713.826233	1400.012085	727.572266	2.003252
285.077942	719.919128	1433.299438	730.915833	1.541492
285.449524	717.912903	1463.614868	730.841553	1.733756
285.821014	714.197754	1495.044922	729.132629	1.912650
286.192535	717.838562	1520.679565	719.993408	0.268403
286.563995	724.674377	1544.902222	719.993408	-0.570691
286.935425	721.479431	1556.196289	720.736389	-0.089017
287.306824	718.358704	1554.190063	726.531982	0.977862
287.678223	706.321594	1541.707153	733.070618	3.201997
288.049561	711.820007	1511.763184	742.135559	3.789713
288.420898	706.990417	1496.085327	744.290344	4.726925
288.792145	710.259766	1495.788086	741.318176	3.953825
289.163452	706.470276	1516.146973	738.197571	3.918514
289.534668	701.120422	1539.923828	729.801331	3.419265
289.905914	700.154541	1577.075195	733.145020	3.762083
290.277039	704.389832	1608.876831	724.080078	2.176952
290.648193	711.522888	1661.334473	733.293518	2.292100
291.019318	712.117371	1696.999878	737.231628	2.549975
291.390381	707.733398	1720.776733	744.438965	3.623297
291.761475	707.807800	1721.965454	736.860046	2.864668
292.132507	715.832458	1703.241211	729.281189	1.362023
292.503510	715.163757	1691.650024	726.754883	1.187024
292.874481	718.581604	1676.789551	736.414307	1.861047
293.245422	715.980957	1681.470581	737.305908	2.208719
293.616364	717.838562	1705.321777	737.677429	2.009033
293.987213	715.683838	1730.064453	725.566101	0.974216
294.358093	716.426819	1782.373657	727.943665	1.080433
294.728943	719.398926	1828.292603	724.897278	0.495841
295.099731	718.433105	1893.084595	732.401917	1.189188
295.470490	718.210144	1923.697388	725.417480	0.597877
295.841248	715.089417	1941.084351	724.302917	0.751512
296.211975	723.411316	1958.248169	722.519714	-0.072204
296.582642	721.850891	2006.619141	726.829285	0.387493
296.953308	721.182190	2068.736328	727.200745	0.446628
297.323883	717.095520	2116.735840	717.912903	0.058399
297.694519	720.364929	2153.070068	713.603333	-0.471946
298.065063	720.364807	2162.655029	715.386536	-0.345164
298.435608	715.089355	2129.218750	721.627991	0.462379
298.806122	711.448547	2063.683838	718.804504	0.543985
299.176575	708.996582	1999.114624	718.358704	0.725679
299.547028	711.299988	1973.926147	719.250305	0.629665
299.917450	703.052429	1956.464966	729.578430	2.116302
300.287872	707.138977	1948.663208	734.185242	2.178473
300.658234	705.058533	1937.146118	733.367859	2.297672
301.028564	715.981018	1937.369141	728.166687	0.997690
301.398865	717.318542	1933.133789	717.541321	0.018323
301.769135	722.296814	1931.350586	726.829163	0.374867
302.139374	712.042969	1930.979004	735.076843	1.889670
302.509583	708.773682	1938.929321	740.798157	2.603287
302.879791	712.711731	1950.966431	737.825989	2.028198
303.249939	721.182129	1948.365845	726.903503	0.466220
303.620087	721.256531	1927.932617	727.126465	0.486455
303.990173	720.067688	1900.366333	719.621887	-0.037770
304.360260	724.600098	1900.589478	724.600098	0.000000
304.730286	729.875671	1913.146484	724.823059	-0.427004
305.100281	726.011902	1927.115356	726.977783	0.080416
305.470276	718.061523	1943.164673	729.727051	0.952208
305.840179	714.940735	1954.681641	739.832214	2.007797
306.210144	709.962463	1970.731079	743.844543	2.687415
306.579987	713.231750	1967.833374	746.147949	2.623638
306.949890	715.014954	1986.706055	739.237793	1.904774
307.319702	717.987122	2001.046509	738.420410	1.592544
307.689484	720.216309	2022.148560	736.934387	1.284097
308.059265	716.501160	2041.467163	737.157288	1.558993
308.429016	718.135803	2088.054932	740.575195	1.638008
308.798737	709.293762	2157.008057	740.352295	2.145350
309.168396	712.934570	2223.285889	734.185242	1.407002
309.538055	712.191589	2268.684814	726.011963	0.887917
309.907684	713.974854	2287.186523	724.971680	0.699005
310.277313	709.813904	2311.929199	733.739319	1.493364
310.646851	709.813904	2325.155029	736.414246	1.646732
311.016388	711.522949	2345.588379	738.346191	1.641504
311.385895	709.962585	2345.291016	735.299805	1.549366
311.755371	710.928467	2363.866699	737.826111	1.627262
312.124817	718.433044	2368.473633	735.819824	1.053718
312.494232	724.748779	2365.575928	727.349304	0.158489
312.863617	731.807434	2342.987549	730.098572	-0.106063
313.232971	722.742615	2318.988037	728.538269	0.363080
313.602295	718.358704	2306.728271	736.117126	1.118028
313.971619	710.408386	2315.198486	731.658936	1.324195
314.340820	704.687012	2328.424561	731.881836	1.674829
314.710083	700.674622	2368.622070	728.018066	1.639347
315.079285	700.154541	2396.782959	735.819824	2.102127
315.448486	709.591003	2439.878662	738.569092	1.674756
315.817596	715.758118	2431.556641	741.021057	1.472372
316.186707	714.197754	2400.052002	737.900391	1.405972
316.555786	713.454773	2338.826660	738.866211	1.563423
316.924866	714.792175	2298.331543	748.674255	2.139642
317.293884	719.993347	2280.499023	746.222229	1.680794
317.662872	726.457703	2275.818115	740.575195	0.911182
318.031830	718.953125	2280.127686	731.733215	0.818620
318.400757	714.420654	2289.638428	723.485657	0.575476
318.769684	716.055237	2320.697021	725.566101	0.592709
319.138550	718.878845	2346.925781	730.172852	0.693715
319.507416	720.736389	2373.749023	732.402039	0.705720
319.876190	704.092590	2387.718018	730.172852	1.549054
320.244995	711.151367	2386.603516	725.566101	0.860349
320.613770	711.671448	2369.736816	731.881836	1.218914
320.982483	717.169922	2345.217041	735.894226	1.150108
321.351166	716.649719	2329.167236	735.002502	1.138145
321.719818	715.981018	2307.991211	739.237793	1.460843
322.088440	723.114075	2302.641357	735.299744	0.771476
322.457062	720.290527	2319.953857	736.191406	0.994014
322.825623	725.789001	2360.597412	729.429871	0.222709
323.194183	714.643555	2414.169678	732.401917	1.044901
323.562653	710.556885	2467.964844	732.104736	1.226115
323.931183	706.247375	2534.020020	736.117004	1.634209
324.299591	710.779785	2597.697510	736.711426	1.374286
324.668060	713.751953	2668.656494	743.175781	1.505129
325.036407	713.900574	2710.860352	742.507141	1.432506
325.404755	718.953125	2740.655518	744.736145	1.275312
