Jaz Data File
++++++++++++++++++++++++++++++++++++
Date: Fri Jun 04 17:02:14 2021
User: jaz
Dark Spectrum Present: Yes
Reference Spectrum Present: Yes
Processed Spectrum Present: Yes
Spectrometers: JAZA3586
Integration Time (usec): 121000 (JAZA3586)
Spectra Averaged: 10 (JAZA3586)
Boxcar Smoothing: 1 (JAZA3586)
Correct for Electrical Dark: No (JAZA3586)
Strobe/Lamp Enabled: Yes (JAZA3586)
Correct for Detector Non-linearity: No (JAZA3586)
Correct for Stray Light: No (JAZA3586)
Number of Pixels in Processed Spectrum: 2048
>>>>>Begin Processed Spectral Data<<<<<
W	D	R	S	P
191.335022	0.000000	0.000000	0.000000	0.000000
191.713211	225.805969	227.812134	230.338440	225.927170
192.091385	456.738800	461.791412	462.534424	114.705490
192.469528	686.482849	693.913086	704.389832	241.001511
192.847641	699.188538	708.030579	714.866455	177.311066
193.225739	716.501160	719.696106	726.977783	327.912354
193.603790	733.145020	731.584656	728.389587	304.764313
193.981842	736.117004	733.962341	731.436035	217.248322
194.359863	734.779602	737.157227	735.745605	40.628929
194.737854	737.380188	747.931152	744.513245	67.605728
195.115829	753.281067	748.154114	745.553467	150.725006
195.493774	759.596680	749.268616	745.924988	132.374191
195.871704	762.791748	744.810547	744.141663	103.719910
196.249603	761.082825	753.726807	746.445129	198.989395
196.627457	756.178772	751.051941	740.352295	308.699005
197.005310	760.191162	749.640137	736.340027	226.055145
197.383133	755.361511	742.358459	739.683594	120.571060
197.760910	755.955872	743.918762	749.565918	53.085449
198.138687	748.376953	747.188171	754.098328	-481.280487
198.516449	743.324402	750.383240	753.206726	139.999313
198.894180	742.729980	741.764099	749.194336	-669.270142
199.271866	743.101563	731.138855	751.051941	-66.459694
199.649536	742.878601	726.606262	747.485352	-28.310316
200.027191	743.324402	733.293518	744.438965	-11.111314
200.404816	737.603088	736.191406	733.962341	257.901337
200.782410	740.649597	748.525635	731.287415	-118.869194
201.159988	736.934387	759.225281	735.002502	-8.666699
201.537537	738.197571	773.937195	738.569031	1.039351
201.915070	729.058289	768.513000	738.940613	25.047260
202.292557	726.606262	768.587341	738.420471	28.141747
202.670029	726.531982	763.609070	740.055115	36.473019
203.047485	732.104675	771.187988	737.083008	12.737744
203.424911	730.692932	768.215820	735.745544	13.465414
203.802292	724.600098	763.386169	736.934387	31.800821
204.179688	724.377197	762.420227	744.141785	51.953243
204.557037	733.219238	762.568848	742.581360	31.898624
204.934357	733.070618	769.404602	734.408142	3.681194
205.311661	728.612488	767.175598	732.550537	10.211960
205.688934	716.575439	765.540833	733.516418	34.597862
206.066177	720.216309	764.575012	741.838379	48.743694
206.443390	713.900574	759.225281	735.671204	48.032589
206.820587	721.850891	755.435730	733.367920	34.292343
207.197769	727.646667	755.732910	734.482422	24.338444
207.574921	733.962341	758.482117	740.723816	27.575598
207.952042	727.646545	761.900085	733.442139	16.919691
208.329147	724.897400	759.522461	732.179016	21.029902
208.706223	763.757629	806.853210	774.977356	26.034517
209.083267	769.627625	809.156555	789.169189	49.436108
209.460297	771.039368	811.014160	784.710999	34.200630
209.837280	735.076843	764.946533	740.872498	19.403128
210.214264	730.247131	769.107422	737.454590	18.547104
210.591217	728.538147	770.444885	735.374023	16.312119
210.968124	728.983948	771.559509	736.042786	16.579554
211.345016	731.733215	767.472839	739.609314	22.037441
211.721893	731.361633	758.853699	742.284180	39.729813
212.098724	732.773438	756.030273	744.661865	51.117992
212.475555	732.847717	755.510071	745.107666	54.098305
212.852356	728.686768	758.779358	750.011658	70.864258
213.229126	726.829285	765.912415	744.587585	45.437252
213.605865	724.154297	762.643066	733.219238	23.552172
213.982590	721.776672	765.020813	723.114075	3.092679
214.359283	715.237976	762.494446	727.646545	26.257927
214.735931	709.591003	762.791748	735.002625	47.765537
215.112579	714.346375	757.367676	741.318359	62.694489
215.489197	719.250305	755.732910	740.946777	59.470734
215.865799	725.120300	759.819641	728.389587	9.421756
216.242355	716.575439	762.197266	721.850891	11.563438
216.618896	717.764221	760.785583	720.141907	5.526756
216.995407	718.135742	763.163269	725.417480	16.171749
217.371902	723.411316	764.129150	728.240906	11.861116
217.748367	732.922058	762.791687	723.114075	-32.835972
218.124802	731.138855	753.503906	726.531921	-20.598806
218.501236	730.024231	756.327393	721.107910	-33.898285
218.877609	718.878845	755.881592	723.485596	12.449753
219.253983	718.433044	758.705078	724.525818	15.129044
219.630295	725.491760	755.361511	728.984070	11.691793
220.006592	728.835449	750.903320	727.200745	-7.407622
220.382889	730.024231	746.073669	717.021240	-81.018356
220.759140	717.541321	745.107727	717.615662	0.269679
221.135391	716.426819	742.952942	721.999512	21.008320
221.511581	715.535156	752.760925	720.662109	13.772592
221.887772	723.485596	756.253113	722.148132	-4.081675
222.263931	724.080078	772.079590	726.234802	4.489054
222.640060	724.005676	766.581238	741.392578	40.837749
223.016159	717.095520	767.621399	745.479187	56.176495
223.392212	719.919006	757.813477	737.380188	46.078442
223.768265	726.011902	767.398438	736.785828	26.032442
224.144302	732.773376	768.958801	729.949951	-7.802659
224.520294	721.182129	773.788574	736.637207	29.378677
224.896286	716.055237	773.565613	734.110901	31.395489
225.272217	717.467102	775.868958	743.547363	44.656563
225.648148	727.052185	778.766785	748.897156	42.241398
226.024048	724.971619	770.890686	750.457520	55.501781
226.399902	719.621826	769.256104	744.959045	51.047825
226.775772	711.225586	763.237549	739.683594	54.714352
227.151581	718.433044	765.318054	730.024231	24.722586
227.527374	715.015137	761.825867	732.773438	37.936390
227.903137	718.730164	761.454346	728.315247	22.434795
228.278870	716.798340	758.184875	740.723816	57.809807
228.654572	717.392761	757.887695	736.637146	47.522945
229.030273	717.764343	762.271667	744.141785	59.265396
229.405930	715.683777	765.838135	734.556641	37.629559
229.781555	728.166687	768.736023	734.185242	14.835231
230.157181	736.562927	762.568848	729.875671	-25.714359
230.532761	736.934387	764.723633	732.253418	-16.844536
230.908325	730.767273	770.221985	734.333801	9.039550
231.283859	726.383484	775.348877	729.801270	6.980002
231.659332	727.572266	772.674011	733.887878	14.003034
232.034821	728.612488	765.838135	730.767273	5.788443
232.410263	719.696228	766.432556	726.309082	14.149281
232.785690	721.033630	767.844238	715.683838	-11.428590
233.161087	721.925293	768.067200	717.392761	-9.823027
233.536469	724.377197	763.980652	725.640381	3.189579
233.911804	722.816895	763.757629	733.739441	26.678921
234.287140	721.776611	764.277832	733.516418	27.622282
234.662430	727.646484	768.661621	730.618652	7.246515
235.037704	723.782898	774.234375	729.652649	11.634448
235.412933	725.268860	773.937073	730.247131	10.229000
235.788162	720.067688	769.479004	723.559875	7.067586
236.163345	718.730286	764.649231	726.532043	16.990280
236.538513	716.724060	769.776123	728.315247	21.848701
236.913635	716.575439	768.290100	735.968506	37.500134
237.288742	720.884949	764.500671	735.374023	33.219845
237.663834	718.655945	757.070496	733.516418	38.684490
238.038879	724.302917	762.717468	733.293518	23.404154
238.413910	719.547546	763.906311	734.259521	33.165882
238.788910	719.324646	766.135437	730.693054	24.285872
239.163879	718.432922	767.175598	731.956116	27.744053
239.538834	713.751953	763.311829	732.327637	37.481297
239.913757	718.655945	764.575012	737.083008	40.129436
240.288651	715.015076	763.757629	736.117004	43.292622
240.663528	723.782776	773.268372	730.618652	13.813871
241.038361	720.513489	777.355042	726.531982	10.588194
241.413177	722.593994	773.417053	731.436035	17.397696
241.787979	725.640320	766.061035	736.414307	26.654617
242.162735	728.092346	765.466614	739.014893	29.224777
242.537476	725.937500	770.444885	732.773438	15.359108
242.912170	720.884949	777.949463	730.767273	17.317810
243.286865	718.135742	779.212646	728.389587	16.788416
243.661514	713.157532	780.104309	730.098572	25.305237
244.036148	719.176025	779.212646	736.340027	28.589220
244.410751	725.417480	776.389160	746.519348	41.399200
244.785339	735.076843	776.166260	749.045715	33.996277
245.159882	736.711487	776.983582	746.965271	25.461264
245.534378	732.476135	785.231140	743.918884	21.690357
245.908890	726.160461	784.859619	733.739441	12.911564
246.283356	726.457703	777.652283	728.018066	3.047908
246.657791	725.343201	766.878418	723.262695	-5.009015
247.032196	731.510254	772.228210	734.779602	8.029254
247.406586	725.640320	783.522217	736.117004	18.100105
247.780960	728.463867	787.311707	735.968445	12.752512
248.155289	727.795166	783.002136	731.064453	5.921874
248.529602	722.965515	777.726563	725.566101	4.748971
248.903870	724.674500	784.339539	730.024231	8.966275
249.278122	717.095520	784.265320	728.761047	17.367220
249.652344	720.513489	784.116638	735.299744	23.247677
250.026550	713.751892	774.085754	736.860107	38.300575
250.400711	712.785950	780.178528	735.299805	33.407024
250.774857	713.900452	777.726563	734.928223	32.945404
251.148987	719.027405	783.968018	727.646667	13.272531
251.523071	724.674377	777.726563	725.566101	1.680842
251.897125	728.686829	783.447937	730.247131	2.849290
252.271164	723.559875	778.766785	728.389587	8.748384
252.645187	725.120300	776.389160	735.002502	19.275253
253.019165	726.234863	769.924805	727.274963	2.380640
253.393112	733.888000	777.132141	735.671204	4.123572
253.767044	729.652771	771.930969	734.928223	12.477948
254.140930	727.349304	781.293152	748.005432	38.291908
254.514801	722.148132	776.537781	745.999329	43.852455
254.888657	725.045898	782.110413	748.377014	40.885506
255.262466	731.287354	775.051697	738.123230	15.619740
255.636276	731.064453	781.441711	739.089172	15.929250
256.010010	732.922058	781.738953	743.844543	22.374395
256.383759	724.080017	780.847351	748.897034	43.717072
256.757446	730.098450	773.194092	749.863037	45.862148
257.131134	724.451477	775.646057	742.209900	34.688091
257.504791	724.228577	776.983459	739.832214	29.577618
257.878418	715.460938	775.720398	737.008728	35.758354
258.252014	723.782776	780.550049	737.454529	24.083864
258.625580	720.885010	788.797668	733.813660	19.037172
258.999115	729.875671	794.073242	736.042725	9.606365
259.372650	726.680603	793.701660	744.513245	26.607521
259.746124	727.274963	791.546875	746.519348	29.942139
260.119598	728.463867	791.398254	742.209900	21.841846
260.493042	729.281250	796.822449	732.699158	5.060478
260.866425	728.166687	803.806824	733.887939	7.563778
261.239838	717.318420	810.048340	738.420410	22.756399
261.613159	708.922302	806.556152	742.432800	34.322624
261.986511	712.340149	801.800720	738.197571	28.903708
262.359802	720.513489	792.067078	739.683594	26.791256
262.733063	728.761169	789.020569	735.596985	11.343982
263.106293	725.937683	777.726563	734.928223	17.359982
263.479523	719.398926	785.008240	740.500977	32.163193
263.852692	719.696106	791.026855	744.216064	34.375019
264.225861	719.844788	802.172180	746.370850	32.220215
264.598969	730.990173	798.085632	732.624817	2.436295
264.972076	724.674500	792.587158	733.665039	13.238385
265.345154	726.531982	796.896729	737.008606	14.889024
265.718201	715.906738	803.509583	743.621582	31.636923
266.091217	729.801331	809.676758	747.262451	21.860441
266.464203	733.590820	815.323730	747.039551	16.454487
266.837158	739.014893	813.391846	742.581360	4.795124
267.210114	724.748718	820.673523	738.123230	13.942704
267.583038	719.770508	827.360779	733.367859	12.638086
267.955902	717.689941	834.419617	736.488586	16.104427
268.328766	722.965515	824.463074	739.906494	16.691021
268.701569	727.052063	813.168945	736.562805	11.043993
269.074371	719.473206	808.710754	732.253235	14.321359
269.447144	712.488770	815.992493	724.377197	11.485991
269.819885	709.591003	820.896484	733.739441	21.695641
270.192596	716.129700	825.577454	741.838379	23.489454
270.565277	730.767334	831.670349	755.064270	24.079494
270.937927	739.609375	831.150208	752.240723	13.798594
271.310577	735.671326	834.419617	744.810486	9.255006
271.683136	726.011902	824.165771	733.293640	7.418697
272.055725	717.690002	829.812805	731.361633	12.193443
272.428284	717.764343	830.555847	737.083008	17.127766
272.800812	720.364929	841.849854	747.856873	22.629921
273.173279	726.977783	836.351379	747.039551	18.342422
273.545776	735.522644	833.527893	743.695984	8.339696
273.918152	729.281250	831.075989	739.832214	10.364941
274.290558	719.621887	832.339111	742.655762	20.435097
274.662964	713.528992	837.094482	743.175781	23.992775
275.035278	720.439148	836.648621	736.562927	13.874755
275.407593	725.045898	836.500000	737.231628	10.933407
275.779907	724.822998	845.787842	740.798096	13.206397
276.152161	716.278259	852.846497	738.940491	16.594072
276.524384	712.934570	862.654541	738.271790	16.923073
276.896606	713.157410	861.242859	740.649597	18.565084
277.268799	719.027344	865.775391	747.336731	19.291151
277.640930	724.525818	863.026123	742.804382	13.197491
278.013031	731.138733	860.351257	735.299744	3.220284
278.385162	730.321472	854.704285	726.754883	-2.867429
278.757233	722.296692	855.372864	724.377258	1.563440
279.129272	719.844727	859.608154	727.349365	5.369530
279.501282	718.953125	863.026062	734.259460	10.624019
279.873230	723.559875	869.861877	728.909668	3.656677
280.245178	724.971680	875.806152	718.284363	-4.433547
280.617126	721.182312	877.589355	722.891174	1.092574
280.988983	715.015137	878.258118	736.414307	13.108784
281.360870	716.724060	885.465515	753.429504	21.752476
281.732697	721.702332	894.679016	740.723816	10.996560
282.104492	731.138733	902.778015	736.934387	3.376648
282.476288	730.544373	901.960754	731.361633	0.476769
282.848053	732.253357	908.945129	736.934387	2.649263
283.219757	730.321472	915.409485	732.030457	0.923336
283.591461	725.194519	924.474426	726.234863	0.522052
283.963135	726.086121	923.954285	726.680664	0.300475
284.334747	736.637146	924.845947	737.231628	0.315863
284.706360	734.779602	925.291809	743.993164	4.836205
285.077942	734.333801	936.362976	743.101563	4.339849
285.449524	715.460876	947.359680	736.934387	9.259863
285.821014	713.157532	955.235779	733.293518	8.317966
286.192535	711.225647	957.687805	735.596924	9.888446
286.563995	715.609436	967.198547	734.185242	7.383390
286.935425	715.832458	964.300781	738.346130	9.060983
287.306824	719.027527	964.597961	734.036560	6.111906
287.678223	713.751953	954.418457	735.522644	9.046000
288.049561	726.011963	955.235779	726.829285	0.356561
288.420898	724.154358	952.783752	734.556702	4.549871
288.792145	732.327637	952.486572	735.596924	1.484967
289.163452	729.504150	958.876526	740.352295	4.729490
289.534668	737.454529	966.975586	736.711487	-0.323736
289.905914	737.380188	972.548340	737.008728	-0.157955
290.277039	735.745544	985.105469	743.621643	3.158526
290.648193	735.299744	1001.229187	746.222229	4.107287
291.019318	731.881836	1010.591248	745.033386	4.718732
291.390381	724.451599	1006.727539	734.333801	3.500901
291.761475	708.996582	995.582214	733.442200	8.529952
292.132507	712.042969	994.616211	739.386414	9.676587
292.503510	715.758118	1004.126953	747.485413	11.002332
292.874481	729.727051	1021.439453	754.098328	8.354556
293.245422	727.572266	1028.126709	748.525696	6.971592
293.616364	724.600159	1034.442383	749.268616	7.961619
293.987213	717.912903	1029.464233	736.488586	5.962319
294.358093	718.061523	1047.073975	731.733215	4.155372
294.728943	714.940857	1060.448364	730.841614	4.602145
295.099731	711.745789	1076.720825	728.909668	4.702754
295.470490	717.467041	1094.776245	733.739319	4.312717
295.841248	720.736328	1105.773193	734.779602	3.647254
296.211975	722.073792	1118.999146	740.278015	4.586309
296.582642	719.547546	1123.902954	744.290344	6.119072
296.953308	719.770508	1133.116577	738.197510	4.458008
297.323883	724.005676	1144.410400	741.764099	4.224125
297.694519	720.364929	1144.113281	735.151123	3.489381
298.065063	719.993408	1146.565308	737.528809	4.110773
298.435608	721.107910	1139.952271	729.652649	2.040075
298.806122	729.429871	1132.447754	734.928223	1.364295
299.176575	731.584534	1129.252808	743.250183	2.933513
299.547028	728.761047	1123.680054	742.581360	3.499531
299.917450	722.148132	1121.525269	743.844543	5.432562
300.287872	721.702332	1114.317993	736.711426	3.822847
300.658234	725.937561	1115.952515	736.711426	2.762424
301.028564	727.795166	1120.782227	731.361633	0.907528
301.398865	726.977844	1122.714111	730.247131	0.826128
301.769135	722.891113	1129.995728	731.733154	2.171933
302.139374	716.575439	1132.893555	729.578430	3.123331
302.509583	716.129639	1126.354980	727.646545	2.807459
302.879791	713.454773	1118.850464	732.847717	4.783708
303.249939	715.832458	1116.026855	740.129395	6.071283
303.620087	718.804504	1127.172241	746.222168	6.713964
303.990173	720.810730	1130.367310	744.884766	5.878073
304.360260	721.182190	1138.837891	743.101501	5.248177
304.730286	724.600159	1140.472412	741.243958	4.002142
305.100281	722.891174	1142.552856	738.271790	3.665004
305.470276	728.166687	1135.345581	741.541199	3.284677
305.840179	722.668274	1137.203125	737.157288	3.495246
306.210144	719.621887	1140.249634	738.643311	4.522151
306.579987	719.473328	1152.658081	739.312012	4.579728
306.949890	714.049133	1159.345337	740.278015	5.890210
307.319702	718.878845	1177.846680	742.507141	5.148138
307.689484	714.494934	1184.905396	740.946777	5.623141
308.059265	725.789001	1204.298462	744.587585	3.928571
308.429016	727.497986	1212.174683	742.061279	3.004744
308.798737	726.531982	1233.722412	737.008728	2.065643
309.168396	725.863281	1243.456055	736.860107	2.124610
309.538055	714.346375	1256.533325	739.386414	4.618340
309.907684	719.324646	1268.793213	742.507080	4.219065
310.277313	714.569336	1281.796143	741.838379	4.807432
310.646851	723.559875	1294.353394	743.175781	3.436603
311.016388	717.764343	1306.241821	747.856934	5.113635
311.385895	724.525818	1312.483276	750.531738	4.423096
311.755371	723.931396	1314.415039	747.039551	3.913428
312.124817	722.148132	1313.300537	741.243958	3.230271
312.494232	719.993347	1310.254272	740.129395	3.411381
312.863617	721.330811	1307.876343	741.838379	3.496330
313.232971	724.377258	1304.978638	746.222229	3.762473
313.602295	719.473328	1306.910522	737.082947	2.997702
313.971619	717.095520	1316.049805	740.129395	3.845682
314.340820	721.702332	1320.359253	736.339905	2.445069
314.710083	729.058350	1331.430542	739.832214	1.788573
315.079285	730.618652	1344.433472	740.723816	1.646289
315.448486	729.652649	1366.204102	746.296570	2.614702
315.817596	717.838562	1358.328003	752.909485	5.475644
316.186707	719.621765	1352.532349	746.593750	4.261579
316.555786	717.169739	1331.950684	743.770203	4.326820
316.924866	724.080017	1334.551147	736.414246	2.020444
317.293884	713.083191	1332.322144	738.791992	4.151677
317.662872	709.293762	1336.557251	734.110840	3.956404
318.031830	709.739563	1343.393066	739.089172	4.631807
318.400757	724.154297	1354.538574	744.067444	3.158890
318.769684	724.897278	1368.730469	747.188171	3.462216
319.138550	717.244141	1373.188599	739.832214	3.443595
319.507416	713.306152	1378.092407	738.643372	3.811333
319.876190	713.603333	1378.909790	735.819824	3.339287
320.244995	717.541321	1387.157593	748.079834	4.560599
320.613770	719.547546	1381.064819	742.358459	3.448272
320.982483	724.228699	1377.869629	745.404968	3.239740
321.351166	727.572266	1367.690063	744.067566	2.576916
321.719818	725.120178	1363.826294	741.912781	2.629159
322.088440	727.646545	1368.730347	743.695984	2.503485
322.457062	730.395752	1385.225586	741.615479	1.713380
322.825623	721.925232	1408.705200	747.633972	3.743374
323.194183	717.021179	1418.884766	745.107666	4.001702
323.562653	710.408264	1439.912476	742.729980	4.430642
323.931183	719.621826	1457.596558	742.952942	3.161506
324.299591	719.398926	1492.741821	743.175842	3.074563
324.668060	724.228699	1513.100586	740.723816	2.090976
325.036407	724.302917	1536.654663	740.129395	1.948230
325.404755	725.937683	1552.555298	739.609314	1.653924
