Jaz Data File
++++++++++++++++++++++++++++++++++++
Date: Fri Jun 04 16:52:53 2021
User: jaz
Dark Spectrum Present: Yes
Reference Spectrum Present: Yes
Processed Spectrum Present: Yes
Spectrometers: JAZA3586
Integration Time (usec): 24600 (JAZA3586)
Spectra Averaged: 10 (JAZA3586)
Boxcar Smoothing: 1 (JAZA3586)
Correct for Electrical Dark: No (JAZA3586)
Strobe/Lamp Enabled: Yes (JAZA3586)
Correct for Detector Non-linearity: No (JAZA3586)
Correct for Stray Light: No (JAZA3586)
Number of Pixels in Processed Spectrum: 2048
>>>>>Begin Processed Spectral Data<<<<<
W	D	R	S	P
191.335022	0.000000	0.000000	0.000000	0.000000
191.713211	227.812149	233.756348	231.824509	67.500427
192.091385	455.401367	470.633423	465.729492	67.805191
192.469528	695.027649	713.083191	706.173096	61.728676
192.847641	705.281433	715.386536	715.312317	99.265533
193.225739	723.634216	724.748718	730.395813	606.692200
193.603790	731.584534	727.275085	733.665100	-48.279182
193.981842	739.757813	742.507080	736.562988	-116.206375
194.359863	740.649475	740.798096	731.733215	-5999.342773
194.737854	744.141785	746.890930	736.785828	-267.572479
195.115829	742.284241	741.243958	731.435974	1042.818604
195.493774	742.655762	746.445129	728.389587	-376.479034
195.871704	739.609314	740.055176	723.782776	-3549.650879
196.249603	745.256348	746.222229	732.104736	-1361.617676
196.627457	745.702148	748.674133	741.838379	-130.006363
197.005310	744.439026	752.835144	749.863098	64.602142
197.383133	741.689758	753.875427	754.395569	104.268471
197.760910	735.076843	761.602844	757.813477	85.714516
198.138687	738.049011	765.838196	753.578186	55.882080
198.516449	736.191345	752.983826	754.618469	109.734375
198.894180	749.788757	743.398743	748.005554	27.906088
199.271866	750.085999	743.472961	746.519531	53.930851
199.649536	751.274902	751.497742	745.553528	-2567.488281
200.027191	749.342957	753.132385	747.113770	-58.826466
200.404816	752.760925	750.457520	747.931152	209.679642
200.782410	750.308899	760.265381	743.398743	-69.403595
201.159988	742.952881	773.119812	743.250183	0.985524
201.537537	735.671204	777.206482	737.900208	5.366532
201.915070	735.151184	784.116699	740.203674	10.318466
202.292557	731.064453	777.578064	731.584534	1.118126
202.670029	735.522644	780.772949	735.002502	-1.149476
203.047485	736.042786	774.234375	729.281250	-17.704252
203.424911	739.832214	775.571777	731.807556	-22.453152
203.802292	732.030457	776.686340	731.361755	-1.497454
204.179688	728.686768	769.924805	727.646545	-2.522482
204.557037	725.566101	758.184998	726.086243	1.594602
204.934357	724.451477	759.225281	731.881836	21.367691
205.311661	722.816895	760.116882	741.021057	48.804741
205.688934	724.377258	763.163269	740.203674	40.804443
206.066177	725.120300	758.036377	736.488586	34.537186
206.443390	730.544434	759.002258	731.510315	3.394080
206.820587	728.761169	761.825745	735.076904	19.101213
207.197769	722.965515	764.203430	731.584656	20.901011
207.574921	721.553711	757.813477	736.191406	40.368973
207.952042	718.210144	756.847473	732.401917	36.730728
208.329147	721.330811	761.602844	734.631042	33.025974
208.706223	727.126465	778.543884	736.711487	18.641584
209.083267	733.813721	777.875183	746.965271	29.848192
209.460297	745.404968	764.426453	744.513245	-4.687981
209.837280	734.853943	752.686523	737.083008	12.499957
210.214264	733.219238	755.510071	734.928223	7.666759
210.591217	719.547546	763.460449	736.860107	39.424770
210.968124	720.513489	763.831970	740.798096	46.826679
211.345016	714.123474	763.906250	734.110901	40.149281
211.721893	713.677551	762.123047	728.240967	30.061443
212.098724	713.528992	764.723633	727.349304	26.995623
212.475555	717.764221	758.482239	733.739441	39.233784
212.852356	718.507324	753.875427	734.705322	45.798325
213.229126	714.420593	755.435730	735.299744	50.905964
213.605865	713.900574	759.076599	734.705322	46.052631
213.982590	721.553711	764.352051	739.460693	41.840366
214.359283	731.733215	758.630676	736.488586	17.679628
214.735931	737.900330	759.002258	731.956055	-28.169344
215.112579	735.299744	759.448059	729.727051	-23.076942
215.489197	728.909668	757.664856	729.727051	2.842558
215.865799	715.906738	747.559631	724.302979	26.525980
216.242355	709.516663	740.129395	725.789001	53.155460
216.618896	705.950134	738.866211	723.708496	53.950420
216.995407	700.154541	745.776367	726.309082	57.329010
217.371902	698.594238	745.479187	726.531921	59.587742
217.748367	703.200989	746.445129	723.708496	47.422626
218.124802	713.008850	748.302734	729.281189	46.105267
218.501236	716.426819	754.915588	724.005676	19.691088
218.877609	716.724060	761.825745	730.098450	29.653858
219.253983	721.553711	768.141541	724.302917	5.901126
219.630295	725.863220	773.416992	729.058289	6.718853
220.006592	727.423584	768.810242	728.835388	3.411254
220.382889	724.897278	761.231445	733.739441	24.335670
220.759140	723.634094	762.048767	736.414246	33.268932
221.135391	721.999512	764.946533	736.117004	32.871880
221.511581	719.250305	757.962097	735.819824	42.802254
221.887772	714.792175	749.342957	735.225403	59.139698
222.263931	707.287598	745.404846	737.380188	78.947433
222.640060	707.436218	755.881592	743.324402	74.079689
223.016159	711.968689	757.219055	743.547363	69.786560
223.392212	718.953125	762.866028	736.785828	40.609257
223.768265	726.829163	756.030212	734.408020	25.954058
224.144302	725.714661	758.853699	726.680603	2.914817
224.520294	732.104675	760.191162	728.909668	-11.375604
224.896286	724.080078	766.061035	728.018066	9.380416
225.272217	725.417480	767.101318	732.847839	17.825516
225.648148	720.513489	765.020813	734.408020	31.218527
226.024048	723.931396	771.633789	721.925293	-4.205457
226.399902	724.005676	766.358215	719.398926	-10.877153
226.775772	721.033630	769.033203	719.993347	-2.167276
227.151581	722.965515	763.534729	729.727051	16.666666
227.527374	724.674500	762.717468	733.739319	23.827845
227.903137	724.302979	759.745361	739.534973	42.976780
228.278870	721.776672	766.135437	736.117004	32.328068
228.654572	716.946960	772.153992	735.819824	34.185616
229.030273	719.027405	773.119812	723.039734	7.417546
229.405930	718.730164	768.215820	720.959290	4.504590
229.781555	712.637390	773.045471	722.148132	15.744156
230.157181	708.699402	778.469666	726.160461	25.026506
230.532761	705.429993	778.618164	729.206848	32.487293
230.908325	713.900574	770.073425	727.646484	24.470737
231.283859	718.284424	765.763855	727.795105	20.031160
231.659332	720.885010	767.398499	733.590759	27.316269
232.034821	718.432922	766.283997	734.482422	33.540520
232.410263	717.095520	760.042664	737.083008	46.539738
232.785690	724.377197	762.791809	726.086182	4.448787
233.161087	725.789001	770.965088	722.445313	-7.401458
233.536469	723.411316	775.125977	725.417480	3.879296
233.911804	717.318420	764.054871	724.525818	15.421363
234.287140	717.764343	755.658691	726.086182	21.960632
234.662430	718.655945	761.602844	714.569275	-9.515635
235.037704	714.346375	766.729797	720.067688	10.921992
235.412933	710.779785	777.206543	719.473206	13.087227
235.788162	711.299988	767.101318	730.098572	33.688416
236.163345	718.581726	767.621399	734.928223	33.333210
236.538513	722.371094	756.773193	738.123230	45.788300
236.913635	728.463867	759.448059	733.145020	15.108195
237.288742	724.674500	762.717468	732.030457	19.335917
237.663834	728.612549	767.844299	728.909729	0.757499
238.038879	728.389648	769.627625	732.179016	9.189024
238.413910	733.219238	771.633789	729.281189	-10.251452
238.788910	730.247070	770.370605	734.036560	9.444556
239.163879	721.925232	776.834961	732.624817	19.485773
239.538834	719.919006	779.658508	738.494690	31.094473
239.913757	715.386536	777.578064	734.333740	30.465893
240.288651	724.005676	777.503662	732.401855	15.694384
240.663528	716.946960	767.472839	733.665039	33.088150
241.038361	717.318420	772.674011	731.361633	25.369097
241.413177	712.117188	772.674011	733.293518	34.969357
241.787979	715.460876	777.652344	727.423645	19.235386
242.162735	724.748718	775.868958	731.361755	12.936240
242.537476	723.485596	767.324219	732.550537	20.677979
242.912170	726.903564	772.674011	735.225403	18.181684
243.286865	717.615723	778.618225	737.305908	32.277668
243.661514	722.222473	795.039063	734.928223	17.448977
244.036148	727.275085	798.308411	736.562805	13.075158
244.410751	724.971680	802.320801	735.894226	14.121099
244.785339	716.798340	791.323975	736.265686	26.121677
245.159882	710.705505	785.676941	730.395752	26.263664
245.534378	718.433044	780.624329	729.727051	18.160110
245.908890	725.417480	791.769836	728.166687	4.143344
246.283356	724.748718	791.769836	739.906494	22.616417
246.657791	712.860291	796.227966	738.346191	30.570482
247.032196	712.042969	794.518982	736.562805	29.729658
247.406586	710.556946	803.955383	736.191406	27.446348
247.780960	717.987244	811.088562	739.980774	23.623220
248.155289	720.810730	816.661194	744.364746	24.573711
248.529602	720.885071	813.020447	733.888000	14.112852
248.903870	724.600159	798.605652	730.693054	8.233031
249.278122	727.572205	786.494324	727.349304	-0.378297
249.652344	734.185120	787.831787	729.726990	-8.310171
250.026550	732.624756	794.890442	724.600098	-12.887770
250.400711	728.463867	803.435364	728.909668	0.594627
250.774857	722.668274	797.788330	723.931396	1.681472
251.148987	726.754883	800.240295	733.813721	9.605767
251.523071	720.513489	798.382813	735.299744	18.988550
251.897125	717.541321	803.732605	737.974609	23.706907
252.271164	715.460938	803.658203	733.962341	20.977299
252.645187	718.358704	800.834717	730.172852	14.324344
253.019165	718.878845	801.800598	730.767273	14.336923
253.393112	715.386536	806.184509	736.191406	22.913364
253.767044	712.265869	811.014160	736.488586	24.529758
254.140930	713.231750	811.905762	738.791992	25.903723
254.514801	708.699402	804.475586	724.600159	16.601995
254.888657	707.436218	806.481750	732.624817	25.431332
255.262466	707.584778	808.190674	727.052063	19.350044
255.636276	714.569336	814.209167	738.197510	23.713583
256.010010	725.045959	819.707520	730.618652	5.886965
256.383759	726.977783	818.147278	732.847717	6.438485
256.757446	725.268860	815.695251	733.962219	9.613741
257.131134	726.457703	807.967834	733.813660	9.024592
257.504791	732.922058	807.744873	739.609314	8.937455
257.878418	729.727051	818.221619	731.436035	1.931174
258.252014	721.033630	830.630127	731.361755	9.423773
258.625580	713.083191	857.527771	724.674500	8.024745
258.999115	723.336975	870.010559	734.853821	7.852025
259.372650	727.572266	890.369446	731.064453	2.145115
259.746124	730.915833	907.979309	737.751770	3.860727
260.119598	730.172852	925.589050	729.132629	-0.532311
260.493042	724.674377	937.700378	730.395752	2.685763
260.866425	719.547546	929.527039	724.005676	2.123126
261.239838	716.798340	920.462097	722.222412	2.663249
261.613159	716.575439	903.892578	727.349365	5.751703
261.986511	723.782776	898.617004	724.897278	0.637462
262.359802	720.587830	898.171204	724.971680	2.468615
262.733063	726.457703	888.586243	725.120300	-0.824902
263.106293	723.336975	890.815369	730.321472	4.170387
263.479523	724.080078	880.413025	728.315247	2.709070
263.852692	720.216309	882.121887	734.779602	8.994930
264.225861	717.021301	872.165344	735.596985	11.973186
264.598969	716.798340	875.731934	736.042786	12.108482
264.972076	717.318420	881.378906	727.200684	6.023549
265.345154	720.884949	885.539795	736.562927	9.521723
265.718201	720.290527	884.425293	741.541199	12.947087
266.091217	722.296692	894.679016	742.878662	11.939722
266.464203	723.782898	904.189880	727.497864	2.059214
266.837158	725.640381	917.192871	735.225403	5.003862
267.210114	720.662109	921.502380	735.448303	7.362166
267.583038	718.730164	932.944885	741.764160	10.752761
267.955902	725.789001	940.672424	735.225403	4.391405
268.328766	732.030457	944.313293	737.305908	2.485105
268.701569	735.448303	944.536133	741.764099	3.020643
269.074371	728.389587	953.898254	738.494812	4.481081
269.447144	730.098450	965.192383	740.649597	4.488056
269.819885	727.126465	967.793030	736.488586	3.890080
270.192596	719.844727	974.926086	738.494690	7.311378
270.565277	716.501160	986.888855	738.569031	8.161567
270.937927	712.488770	1007.470642	732.699158	6.851400
271.310577	719.919128	1027.829590	729.949951	3.257708
271.683136	716.129639	1046.999634	725.491760	2.829547
272.055725	719.324707	1070.330688	726.680664	2.095679
272.428284	714.866455	1080.287476	727.869446	3.558359
272.800812	714.272034	1081.104614	719.547546	1.438125
273.173279	706.841797	1075.829224	723.039795	4.389851
273.545776	706.990417	1074.714478	724.971680	4.889879
273.918152	706.544617	1070.925049	738.420410	8.747943
274.290558	719.324646	1062.974609	735.894104	4.821609
274.662964	722.668274	1060.076904	734.185242	3.413359
275.035278	724.674500	1062.231812	729.058350	1.298698
275.407593	720.736389	1069.587524	732.922058	3.493086
275.779907	722.519714	1082.070557	739.014832	4.587701
276.152161	725.714661	1096.633911	737.380188	3.145031
276.524384	719.547546	1100.348999	735.448303	4.175603
276.896606	716.278259	1099.308716	732.030457	4.112518
277.268799	713.008850	1101.612183	736.860107	6.137687
277.640930	718.730225	1120.262085	734.631042	3.960039
278.013031	721.405090	1126.280640	729.875671	2.092144
278.385162	727.423645	1124.051636	730.767273	0.843014
278.757233	720.290527	1112.088867	733.516418	3.375688
279.129272	720.885010	1121.451050	743.027161	5.527716
279.501282	714.940735	1126.503540	738.271790	5.668893
279.873230	721.405090	1142.181396	740.129395	4.449943
280.245178	721.627991	1153.772705	734.928223	3.077726
280.617126	732.922058	1182.527832	737.528809	1.024620
280.988983	735.819824	1211.357300	737.157288	0.281253
281.360870	737.083008	1240.558228	740.129395	0.605072
281.732697	730.024231	1264.335083	741.318298	2.113763
282.104492	731.881836	1286.031372	734.259460	0.429058
282.476288	725.120300	1307.802124	733.590820	1.453713
282.848053	727.572266	1337.597534	732.922058	0.876979
283.219757	718.358704	1344.433350	738.643372	3.239976
283.591461	728.240967	1338.712036	737.454590	1.509264
283.963135	723.857117	1319.319092	737.900330	2.358373
284.334747	733.442200	1323.703003	737.900330	0.755281
284.706360	726.234802	1343.616211	730.470032	0.685999
285.077942	718.655823	1375.789185	730.990234	1.877003
285.449524	711.968689	1407.739380	723.708496	1.687310
285.821014	713.380432	1428.395508	721.776611	1.174266
286.192535	727.349365	1448.234375	723.559875	-0.525672
286.563995	730.024231	1464.655273	727.052063	-0.404580
286.935425	731.584534	1477.732544	737.380188	0.776743
287.306824	727.423645	1477.583984	735.151123	1.030110
287.678223	721.999512	1468.593384	736.637207	1.960597
288.049561	723.708496	1459.082520	738.123291	1.960199
288.420898	724.600159	1445.708008	734.482422	1.370428
288.792145	725.714661	1431.813354	744.884766	2.714933
289.163452	725.268860	1439.689453	749.863098	3.442543
289.534668	724.005676	1458.933960	755.658691	4.306953
289.905914	731.807434	1497.497070	749.491516	2.309563
290.277039	730.470032	1524.617554	743.695984	1.665428
290.648193	727.275085	1567.267212	740.203796	1.539147
291.019318	723.931396	1603.675781	733.293640	1.064200
291.390381	724.823059	1622.845703	732.847717	0.893592
291.761475	731.584534	1625.372070	729.206970	-0.266010
292.132507	732.996399	1606.573364	731.361633	-0.187135
292.503510	726.457703	1592.604492	733.813660	0.849274
292.874481	727.052063	1575.737793	744.216003	2.022414
293.245422	719.844727	1582.053589	745.702148	2.998974
293.616364	719.324646	1606.647827	741.318298	2.478652
293.987213	713.083191	1643.724976	728.686768	1.676647
294.358093	717.689941	1684.962891	728.983948	1.167613
294.728943	724.228699	1731.848022	728.092346	0.383443
295.099731	726.531982	1778.807129	737.157227	1.009740
295.470490	727.646484	1814.398071	738.197510	0.970877
295.841248	726.680603	1831.562134	742.358582	1.418974
296.211975	727.497864	1847.537231	738.569092	0.988468
296.582642	731.807434	1883.351196	736.562927	0.412967
296.953308	724.822998	1932.688110	731.213074	0.529039
297.323883	720.885010	1981.281860	724.823059	0.312445
297.694519	716.129639	2010.185669	724.154358	0.620121
298.065063	721.479431	2014.866821	725.640381	0.321709
298.435608	728.389587	2000.229126	732.699158	0.338845
298.806122	725.194519	1953.790039	735.448303	0.834594
299.176575	720.959290	1911.065918	741.615479	1.735659
299.547028	708.699402	1871.239624	743.621643	3.003960
299.917450	714.494934	1845.308105	748.154114	2.976546
300.287872	721.553711	1829.927368	755.510071	3.063620
300.658234	731.584656	1815.289917	751.794922	1.864923
301.028564	724.971680	1811.871704	752.017822	2.488374
301.398865	719.027405	1805.036011	737.380188	1.689930
301.769135	715.386536	1811.723267	740.426697	2.283985
302.139374	715.460938	1829.333008	731.956116	1.480886
302.509583	714.643555	1839.735352	728.835388	1.261393
302.879791	717.392761	1835.500122	723.262695	0.524988
303.249939	720.290527	1818.336304	729.504089	0.839087
303.620087	723.039795	1810.757324	732.773438	0.894869
303.990173	716.872620	1802.658203	732.550598	1.443929
304.360260	723.336975	1796.862671	730.172852	0.636769
304.730286	726.903503	1796.342407	734.259521	0.687839
305.100281	727.349365	1810.311401	741.021057	1.262435
305.470276	719.919128	1833.419556	741.615479	1.948481
305.840179	715.535156	1838.694946	741.838379	2.341895
306.210144	717.912903	1843.301758	739.386414	1.908097
306.579987	721.479492	1844.936523	742.061340	1.832010
306.949890	718.730286	1864.552368	745.999329	2.379867
307.319702	725.268860	1883.351074	745.553528	1.751574
307.689484	724.451477	1908.985718	738.346191	1.173011
308.059265	728.538147	1936.923462	734.110901	0.461174
308.429016	722.445313	1974.520508	740.203796	1.418324
308.798737	725.120178	2012.340698	740.575195	1.200650
309.168396	727.423584	2054.693359	736.488586	0.682981
309.538055	730.841553	2085.157471	731.361633	0.038402
309.907684	726.903503	2120.525391	736.860046	0.714436
310.277313	725.120300	2145.788330	737.825989	0.894346
310.646851	726.903503	2160.723145	739.386292	0.870597
311.016388	725.640381	2176.103760	742.284180	1.147481
311.385895	722.668213	2179.967529	745.330627	1.555097
311.755371	726.680664	2209.985840	743.250183	1.117067
312.124817	723.039795	2198.543213	736.860107	0.936651
312.494232	731.807556	2200.920654	741.021057	0.627147
312.863617	725.268860	2176.920898	740.500977	1.049295
313.232971	727.943787	2170.531006	737.974609	0.695336
313.602295	721.256531	2157.825439	733.516418	0.853415
313.971619	718.581604	2158.642578	734.631042	1.114497
314.340820	718.953125	2167.038818	739.163513	1.395662
314.710083	730.618652	2188.735352	736.488586	0.402570
315.079285	730.544250	2212.958008	740.203674	0.651601
315.448486	737.751709	2256.350830	746.965271	0.606715
315.817596	725.417480	2253.155518	743.770203	1.201300
316.186707	731.881775	2239.186768	743.101501	0.744357
316.555786	724.005676	2196.165283	733.888000	0.671281
316.924866	723.931396	2165.849854	738.569092	1.015154
317.293884	717.615723	2137.986328	736.934387	1.360114
317.662872	720.885010	2133.454102	746.742371	1.830520
318.031830	725.194580	2139.621338	753.949707	2.032988
318.400757	725.120300	2152.549805	758.928040	2.368435
318.769684	723.039795	2168.004639	752.240723	2.020875
319.138550	721.776672	2195.868164	749.491516	1.880130
319.507416	732.550537	2220.759766	741.318298	0.589148
319.876190	730.618652	2229.601807	743.175781	0.837710
320.244995	733.070618	2225.738037	743.175781	0.676987
320.613770	720.959290	2201.589600	746.668030	1.736338
320.982483	719.324646	2194.531006	745.256348	1.757836
321.351166	711.448547	2178.184326	741.912659	2.077001
321.719818	720.959290	2177.441406	741.689758	1.423325
322.088440	726.086182	2167.633057	742.432800	1.133964
322.457062	722.891174	2195.422607	741.541199	1.266528
322.825623	715.386536	2224.326416	739.312073	1.585586
323.194183	718.210144	2265.861572	736.934387	1.209849
323.562653	729.058289	2304.796143	736.637207	0.480976
323.931183	727.572266	2363.272461	737.528809	0.608702
324.299591	722.965515	2415.061279	744.216064	1.255872
324.668060	722.073914	2481.636475	748.154114	1.482198
325.036407	722.965515	2527.184326	749.342957	1.461987
325.404755	719.398926	2564.187012	736.711426	0.938455
