Jaz Data File
++++++++++++++++++++++++++++++++++++
Date: Fri Jun 04 16:55:57 2021
User: jaz
Dark Spectrum Present: Yes
Reference Spectrum Present: Yes
Processed Spectrum Present: Yes
Spectrometers: JAZA3586
Integration Time (usec): 26900 (JAZA3586)
Spectra Averaged: 10 (JAZA3586)
Boxcar Smoothing: 1 (JAZA3586)
Correct for Electrical Dark: No (JAZA3586)
Strobe/Lamp Enabled: Yes (JAZA3586)
Correct for Detector Non-linearity: No (JAZA3586)
Correct for Stray Light: No (JAZA3586)
Number of Pixels in Processed Spectrum: 2048
>>>>>Begin Processed Spectral Data<<<<<
W	D	R	S	P
191.335022	0.000000	0.000000	0.000000	0.000000
191.713211	231.824478	223.576904	228.629501	38.738384
192.091385	465.580902	454.658356	461.048431	41.496464
192.469528	703.795410	697.033875	695.547852	121.977592
192.847641	715.832458	712.340149	712.340149	100.000000
193.225739	725.120300	725.268860	725.566101	300.082184
193.603790	738.123230	728.761047	737.900330	2.380859
193.981842	739.089172	738.197571	731.287415	875.027405
194.359863	739.460632	743.324463	728.761047	-276.916504
194.737854	732.624817	745.702148	724.302917	-63.636066
195.115829	740.278015	744.216003	731.584534	-220.759460
195.493774	746.890930	744.884766	741.763977	255.559952
195.871704	745.627747	747.856873	745.627747	0.000000
196.249603	741.912598	747.485352	745.330566	61.333569
196.627457	744.661865	747.782532	743.547363	-35.713589
197.005310	745.107727	743.175781	744.661865	23.078381
197.383133	743.324463	743.398743	746.965271	4901.479004
197.760910	734.036621	739.386414	741.615417	141.665237
198.138687	732.327637	735.894104	745.256348	362.507477
198.516449	729.281250	735.299805	741.838379	208.640274
198.894180	729.206848	732.624817	737.751648	249.996429
199.271866	735.299744	734.556641	732.996277	309.979462
199.649536	736.934387	730.247070	727.200684	145.554688
200.027191	736.042725	729.504089	735.745605	4.544055
200.404816	733.962219	731.361633	734.036621	-2.860965
200.782410	733.367859	754.321289	747.262451	66.311775
201.159988	737.454529	773.788574	750.977539	37.218563
201.537537	735.151123	779.138367	756.773254	49.155460
201.915070	731.658875	774.457275	757.293396	59.895981
202.292557	737.454529	775.943359	749.120117	30.309023
202.670029	740.426575	783.522217	747.039551	15.344884
203.047485	742.284180	778.692566	750.606140	22.857262
203.424911	730.098572	769.701904	756.253113	66.041260
203.802292	728.018066	760.042480	751.349121	72.853966
204.179688	728.166687	759.968201	743.844543	49.299088
204.557037	732.699158	756.104492	739.980774	31.110926
204.934357	727.423645	767.547180	741.318298	34.629684
205.311661	730.470032	764.277832	735.671204	15.384532
205.688934	726.383362	771.039368	728.835388	5.490922
206.066177	728.166687	760.711243	730.544250	7.305564
206.443390	717.541321	768.587402	728.686829	21.834208
206.820587	723.039734	772.451111	734.333801	22.857220
207.197769	728.092346	776.166260	735.225403	14.837687
207.574921	731.213074	773.491394	741.243958	23.725834
207.952042	731.510254	767.175598	737.677429	17.291786
208.329147	725.714661	766.581116	737.380188	28.545485
208.706223	728.463867	778.766785	746.890930	36.632195
209.083267	718.730225	781.590332	750.754700	50.945625
209.460297	714.717834	779.509827	747.411133	50.458855
209.837280	715.460876	770.965088	735.745544	36.546177
210.214264	715.163757	768.736023	731.287354	30.096909
210.591217	727.052063	772.748291	729.801331	6.016399
210.968124	728.018066	770.816406	733.219238	12.152742
211.345016	736.637146	770.593567	733.887939	-8.096279
211.721893	729.206848	763.386169	742.135559	37.826118
212.098724	721.256531	751.869324	741.095398	64.805809
212.475555	717.467102	755.064270	750.457520	87.747078
212.852356	712.265930	756.847473	747.188171	78.333405
213.229126	721.330750	768.290100	751.720703	64.715446
213.605865	715.609436	765.318054	751.720642	72.645767
213.982590	722.296692	764.946472	751.720642	68.989685
214.359283	716.129639	755.138489	743.770264	70.857315
214.735931	724.005676	754.321228	729.132629	16.911957
215.112579	722.296814	755.807312	736.117004	41.241375
215.489197	725.343079	759.225281	736.860107	33.991383
215.865799	720.439148	750.531738	736.637146	53.827198
216.242355	717.021301	753.875488	727.572266	28.628942
216.618896	712.934631	757.144714	731.881836	42.857201
216.995407	711.968689	766.283997	734.853943	42.134079
217.371902	714.049133	764.872253	735.299744	41.812881
217.748367	719.621826	759.893860	723.336975	9.225134
218.124802	722.891113	757.441895	729.355530	18.709900
218.501236	721.256531	755.064270	730.172852	26.373608
218.877609	711.299988	755.212891	742.358459	70.727440
219.253983	714.123352	758.333496	742.135559	63.361492
219.630295	715.312256	760.562683	734.408020	42.200184
220.006592	720.216309	758.556458	728.240906	20.930010
220.382889	716.946960	753.875427	730.618652	37.022095
220.759140	720.662109	754.841309	735.448425	43.261154
221.135391	726.383484	756.996094	736.191406	32.038830
221.511581	726.754944	762.866028	734.110901	20.370358
221.887772	727.646545	759.893982	742.878601	47.234936
222.263931	728.835388	769.256042	749.937317	52.205807
222.640060	725.788879	762.568848	746.296448	55.757439
223.016159	716.055359	765.838196	734.779602	37.611843
223.392212	713.083191	765.392395	731.807434	35.795311
223.768265	717.912903	772.005310	737.751709	36.675770
224.144302	728.389465	775.348877	743.770264	32.753387
224.520294	722.965393	780.252869	742.284180	33.722530
224.896286	727.126465	777.429382	731.584534	8.862446
225.272217	727.349365	776.091980	727.349304	-0.000125
225.648148	729.281189	769.479004	731.733215	6.099900
226.024048	727.349365	766.952698	740.500916	33.208191
226.399902	729.206848	768.884521	745.850769	41.947826
226.775772	731.138733	765.020813	739.312195	24.123259
227.151581	728.240967	774.977356	750.011719	46.582016
227.527374	725.120300	771.485107	752.315002	58.653759
227.903137	725.194580	770.519226	751.943542	59.016373
228.278870	721.776611	765.095154	738.866272	39.451145
228.654572	721.256531	765.689514	734.259521	29.264277
229.030273	723.931396	767.398499	734.705322	24.786390
229.405930	727.646484	770.742188	740.426575	29.655138
229.781555	721.107910	769.999207	741.764099	42.249214
230.157181	719.770508	775.794739	737.528809	31.697536
230.532761	710.334045	776.463379	737.825989	41.572994
230.908325	713.528992	774.605774	733.590759	32.846798
231.283859	714.792175	772.822571	738.123230	40.204887
231.659332	722.519714	766.878357	732.550537	22.613007
232.034821	723.039795	774.011414	730.692932	15.014507
232.410263	719.770508	771.410828	725.714661	11.510682
232.785690	722.148132	770.593506	725.789001	7.515411
233.161087	726.457703	770.742188	734.408020	17.952827
233.536469	723.114075	775.646179	738.866211	29.985733
233.911804	720.810730	776.983582	736.562927	28.042368
234.287140	712.414490	773.045471	729.727051	28.553984
234.662430	713.974854	764.872253	729.578430	30.656923
235.037704	719.027405	758.779358	729.949951	27.476753
235.412933	723.931396	758.556458	730.172852	18.025831
235.788162	727.423645	761.974426	725.417480	-5.806423
236.163345	725.343079	769.627625	721.627991	-8.389130
236.538513	725.714661	767.398499	723.857117	-4.456269
236.913635	722.668213	768.438782	732.550476	21.590868
237.288742	711.076965	767.101318	734.853943	42.440434
237.663834	713.231873	767.992981	736.785828	43.012196
238.038879	718.507324	768.810242	743.101563	48.892269
238.413910	725.640381	770.742126	749.045715	51.894520
238.788910	725.343201	773.194092	742.358459	35.558918
239.163879	730.544250	770.593445	736.191406	14.100548
239.538834	730.841492	773.714172	729.875671	-2.252764
239.913757	729.206848	771.336609	738.717590	22.574879
240.288651	717.244141	767.101318	739.014832	43.666111
240.663528	715.312317	772.153870	738.643372	41.045773
241.038361	716.203918	778.098145	733.888000	28.571457
241.413177	722.742615	790.283752	731.807434	13.421183
241.787979	725.268860	781.367432	733.665039	14.966832
242.162735	722.668274	787.831787	739.683533	26.111635
242.537476	718.284363	787.088684	736.934387	27.105890
242.912170	713.974854	802.692383	741.615479	31.155766
243.286865	716.129578	799.868835	731.956116	18.899782
243.661514	723.039734	803.583984	733.665039	13.191885
244.036148	728.612488	795.336365	734.185242	8.351964
244.410751	730.321472	796.079346	732.922058	3.954790
244.785339	719.919128	795.782166	728.315247	11.067469
245.159882	718.804504	802.097839	725.789001	8.385422
245.534378	720.662109	799.571594	731.064453	13.182628
245.908890	727.126465	796.227966	734.631042	10.860224
246.283356	733.813660	792.067078	737.825989	6.887714
246.657791	730.841553	797.862610	733.813660	4.434587
247.032196	723.039734	808.785095	740.278015	20.104040
247.406586	715.386536	814.803650	736.860107	21.599472
247.780960	715.163757	827.732361	741.838379	23.696325
248.155289	719.398926	834.568176	742.581482	20.129120
248.529602	719.919128	839.472168	741.615479	18.147886
248.903870	722.073914	829.367004	737.751770	14.612177
249.278122	722.222412	819.410400	727.943665	5.886790
249.652344	723.336975	813.837646	728.315247	5.500812
250.026550	718.358704	811.905762	729.281189	11.675926
250.400711	725.491760	809.602356	730.618652	6.095417
250.774857	722.593994	807.224670	732.104736	11.237937
251.148987	732.476257	807.967773	733.145020	0.885877
251.523071	727.943665	813.837646	733.813660	6.834001
251.897125	728.612488	814.729309	730.990173	2.761000
252.271164	714.494934	817.701416	735.151123	20.014429
252.645187	711.597168	816.735535	736.785828	23.957628
253.019165	708.402161	820.896484	740.798157	28.797894
253.393112	713.826233	816.958435	737.900330	23.342949
253.767044	714.346375	815.175110	739.534973	24.981567
254.140930	725.788879	804.401306	739.980774	18.052992
254.514801	718.878845	802.246399	742.878601	28.787886
254.888657	724.897400	800.166016	738.420410	17.966333
255.262466	723.411316	812.128723	731.064453	8.626421
255.636276	735.002502	815.546692	730.618652	-5.442789
256.010010	733.070618	822.159668	735.002441	2.168419
256.383759	724.377258	826.172058	742.209778	17.518105
256.757446	720.885010	830.630127	740.946716	18.280273
257.131134	715.758118	831.521790	740.352295	21.245159
257.504791	719.398987	829.887024	733.516418	12.777340
257.878418	715.832458	836.871582	734.333740	15.285373
258.252014	714.569336	855.595886	735.151123	14.594264
258.625580	715.832458	871.050781	735.299805	12.541912
258.999115	721.330811	893.861633	733.367859	6.976752
259.372650	726.086243	902.778015	735.076843	5.088296
259.746124	720.067688	921.502380	738.346130	9.074128
260.119598	710.408264	937.254578	738.197510	12.250252
260.493042	706.990417	950.851990	740.055115	13.558798
260.866425	711.076965	960.511292	740.946716	11.974997
261.239838	715.683777	950.926270	738.569092	9.728394
261.613159	717.392761	937.403137	730.915833	6.146561
261.986511	721.107910	912.288879	733.293457	6.373828
262.359802	725.566101	896.536621	739.163391	7.953002
262.733063	730.024231	886.431458	749.788757	12.636581
263.106293	729.355530	886.208557	751.051941	13.832319
263.479523	736.562805	884.351013	755.212830	12.619427
263.852692	732.922058	881.304504	754.023987	14.221311
264.225861	729.875671	881.378845	751.869202	14.516877
264.598969	722.296692	882.864807	744.067383	13.558539
264.972076	723.857117	890.666687	735.522644	6.993320
265.345154	729.652649	891.261169	734.408020	2.942525
265.718201	730.544373	903.966980	738.866272	4.798625
266.091217	731.138733	914.517883	744.141785	7.090802
266.464203	722.965515	928.189514	744.216125	10.354836
266.837158	721.627991	936.065674	735.819824	6.618162
267.210114	721.405090	947.582520	733.367920	5.289135
267.583038	724.228577	962.666016	732.253357	3.365571
267.955902	724.080017	965.563782	736.117126	4.984645
268.328766	725.640381	974.405945	735.745605	4.062148
268.701569	725.863281	967.421387	730.544373	1.937874
269.074371	726.309143	971.508057	729.355469	1.242390
269.447144	719.250427	972.845459	729.355469	3.984716
269.819885	716.872620	988.374756	736.340027	7.170259
270.192596	714.866516	994.096008	737.083008	7.956356
270.565277	723.411316	1006.727539	734.556641	3.933882
270.937927	724.971680	1021.662354	734.779602	3.305774
271.310577	726.606384	1053.241089	739.386414	3.912637
271.683136	717.318542	1078.652588	741.021057	6.559723
272.055725	720.810730	1106.218872	739.312073	4.800455
272.428284	715.609558	1112.757568	741.764099	6.585590
272.800812	724.302917	1114.540894	746.668030	5.731147
273.173279	719.844788	1101.314941	749.640137	7.810663
273.545776	726.457703	1109.116699	740.872375	3.766976
273.918152	720.885071	1102.057983	735.968445	3.957095
274.290558	720.885071	1099.828979	731.584656	2.823527
274.662964	715.683838	1084.076782	735.819824	5.465899
275.035278	720.067688	1082.293457	735.819885	4.348723
275.407593	720.513489	1095.073486	742.507141	5.871864
275.779907	721.851013	1107.779175	743.844543	5.698866
276.152161	716.798340	1123.234253	747.411133	7.532010
276.524384	714.494934	1127.692383	743.621582	7.049087
276.896606	721.107910	1147.828491	747.559631	6.198839
277.268799	714.643555	1161.128540	747.559631	7.372270
277.640930	720.141907	1172.496948	752.538025	7.161657
278.013031	714.346375	1163.432007	743.324402	6.452673
278.385162	719.250305	1164.843750	745.107666	5.802904
278.757233	711.077148	1162.688843	738.123230	5.988791
279.129272	711.671448	1175.171875	747.262451	7.678742
279.501282	714.717957	1186.540161	744.364685	6.283453
279.873230	717.838562	1203.778320	746.073547	5.810388
280.245178	719.027405	1222.576904	739.386414	4.043100
280.617126	719.324646	1243.827515	738.717712	3.697418
280.988983	716.872620	1269.610474	737.305908	3.696741
281.360870	706.470276	1287.369019	743.027161	6.293159
281.732697	702.755188	1313.597778	736.785828	5.571098
282.104492	705.801575	1338.414917	734.333801	4.510216
282.476288	714.272034	1366.204102	731.658875	2.666971
282.848053	720.587708	1385.151367	736.191345	2.347952
283.219757	722.668213	1396.891113	741.764099	2.832281
283.591461	726.829163	1403.801392	737.528809	1.580515
283.963135	723.039795	1399.640259	738.866272	2.339117
284.334747	714.940735	1397.114258	737.305847	3.278508
284.706360	710.259766	1418.884766	739.386414	4.110305
285.077942	707.287598	1453.658325	738.940613	4.240924
285.449524	716.129639	1487.540405	746.593750	3.949143
285.821014	716.352539	1496.828125	749.491516	4.245998
286.192535	722.965515	1511.985962	745.553467	2.862784
286.563995	717.764343	1537.397827	739.089172	2.601752
286.935425	714.866455	1566.152832	736.265625	2.513745
287.306824	715.683777	1568.233398	740.055115	2.858642
287.678223	723.931458	1554.561523	735.076843	1.341799
288.049561	734.036621	1536.208618	737.380188	0.416814
288.420898	732.179016	1520.530884	742.878601	1.357209
288.792145	736.191345	1516.221191	741.689758	0.704898
289.163452	732.401917	1522.239868	733.888000	0.188150
289.534668	730.321472	1549.731812	733.219238	0.353640
289.905914	723.114075	1576.852173	735.671204	1.470841
290.277039	723.857117	1612.963379	745.776367	2.465313
290.648193	728.092346	1651.526733	748.897156	2.252982
291.019318	730.915833	1693.804810	759.448059	2.963190
291.390381	735.002502	1715.575562	760.414001	2.591495
291.761475	732.253418	1715.798462	750.531738	1.858412
292.132507	726.532043	1702.795410	742.358582	1.621134
292.503510	714.866455	1689.049438	739.312073	2.509346
292.874481	718.061523	1673.297363	744.513245	2.769130
293.245422	722.073914	1679.390137	749.565857	2.871773
293.616364	729.206848	1696.331055	748.674255	2.012917
293.987213	726.606384	1740.095337	746.370850	1.950141
294.358093	732.104736	1787.277710	743.621582	1.091465
294.728943	730.321472	1849.469116	742.135559	1.055632
295.099731	727.126404	1901.629761	743.695984	1.410773
295.470490	715.535156	1936.254517	747.039551	2.580806
295.841248	717.541443	1960.402954	741.095276	1.895129
296.211975	719.176086	1987.300659	737.974609	1.482388
296.582642	726.160583	2035.077271	742.507141	1.248862
296.953308	721.033630	2082.185059	749.342957	2.079807
297.323883	721.405090	2127.063965	755.361511	2.415694
297.694519	728.538147	2156.041992	750.680420	1.551118
298.065063	728.686768	2159.757324	757.739075	2.030110
298.435608	727.423645	2126.915527	753.355286	1.852932
298.806122	718.581604	2070.148193	754.098328	2.627819
299.176575	720.959290	2008.774048	751.869202	2.400183
299.547028	722.148132	1959.139771	756.475891	2.775100
299.917450	719.993408	1933.356812	751.720520	2.614807
300.287872	718.358704	1927.486938	746.593750	2.335157
300.658234	720.587830	1937.443359	732.253357	0.958662
301.028564	724.897278	1937.963501	735.968506	0.912665
301.398865	726.903503	1928.973022	738.791992	0.989002
301.769135	726.309082	1923.474487	748.971436	1.893001
302.139374	724.971680	1919.684937	744.216003	1.610790
302.509583	726.383362	1928.601196	740.203674	1.149568
302.879791	721.330872	1935.362915	737.974609	1.370947
303.249939	719.621887	1935.140137	740.575256	1.723822
303.620087	721.107910	1923.103027	740.352295	1.601037
303.990173	724.748779	1904.898926	743.250061	1.567706
304.360260	730.172852	1898.880249	740.426575	0.877356
304.730286	730.098450	1904.973145	740.649475	0.898055
305.100281	730.395691	1913.369141	736.637207	0.527613
305.470276	730.990173	1928.972778	735.596924	0.384542
305.840179	732.253235	1952.229492	735.225403	0.243625
306.210144	730.024231	1976.675171	741.392578	0.911911
306.579987	717.392822	1995.325195	742.284180	1.947784
306.949890	706.990417	2007.213501	743.398743	2.800160
307.319702	711.745789	2022.445679	741.689758	2.284579
307.689484	723.039795	2038.420898	746.667969	1.796299
308.059265	732.327637	2069.256592	746.296570	1.044852
308.429016	731.733215	2112.723633	749.120056	1.259012
308.798737	725.714661	2176.103760	746.147888	1.408810
309.168396	725.343079	2225.069336	746.370789	1.402103
309.538055	722.445313	2266.381592	753.875427	2.035713
309.907684	728.538086	2287.409180	750.829041	1.429942
310.277313	731.658875	2309.997314	758.407898	1.694758
310.646851	731.213074	2330.578857	752.537903	1.333330
311.016388	728.463867	2347.594482	760.339661	1.968698
311.385895	728.686768	2351.606689	753.355286	1.520008
311.755371	736.340027	2347.446045	751.943542	0.968497
312.124817	738.717590	2346.554443	745.627747	0.429780
312.494232	730.544373	2348.263184	742.655701	0.748667
312.863617	721.627991	2345.588135	741.838379	1.244513
313.232971	714.049133	2341.947510	745.107666	1.907891
313.602295	716.946960	2323.817627	749.491516	2.025338
313.971619	716.501160	2323.817627	745.702148	1.816754
314.340820	712.414551	2321.216797	739.980774	1.713462
314.710083	709.516663	2363.718018	744.661865	2.124602
315.079285	708.402161	2404.213135	749.491516	2.422992
315.448486	721.776672	2449.389160	758.853699	2.146142
315.817596	720.587830	2450.132080	754.172668	1.941832
316.186707	724.080078	2408.299805	754.469788	1.804379
316.555786	720.216309	2353.167236	741.541199	1.305911
316.924866	722.222473	2305.687744	738.271790	1.013556
317.293884	727.423645	2294.170654	739.386414	0.763542
317.662872	730.172852	2293.502197	744.661804	0.926801
318.031830	722.445313	2310.517578	739.386414	1.066771
318.400757	720.587830	2319.730713	739.757874	1.198770
318.769684	721.999512	2331.544922	743.918762	1.361829
319.138550	728.241028	2346.405518	751.646301	1.446409
319.507416	724.228699	2373.006104	747.856873	1.433072
319.876190	720.141907	2386.529053	748.971375	1.730058
320.244995	722.073792	2386.157715	751.200500	1.750315
320.613770	722.371094	2358.962891	754.395508	1.956775
320.982483	721.702332	2338.529541	749.640137	1.727940
321.351166	722.222473	2316.684570	754.321228	2.013140
321.719818	720.067688	2313.638428	750.383118	1.902359
322.088440	717.764343	2317.873291	749.565918	1.987463
322.457062	718.878845	2339.124023	744.661865	1.591304
322.825623	720.662109	2375.904053	732.401855	0.709247
323.194183	720.959290	2426.058350	739.163391	1.067627
323.562653	726.829285	2481.042236	737.454407	0.605692
323.931183	731.287415	2549.697754	752.389343	1.160460
324.299591	732.922058	2615.084229	752.760803	1.054040
324.668060	726.606262	2674.452393	758.333496	1.628837
325.036407	721.033630	2709.597412	757.813477	1.849568
325.404755	719.547546	2731.887939	756.178711	1.820327
