Jaz Data File
++++++++++++++++++++++++++++++++++++
Date: Fri Jun 04 17:04:20 2021
User: jaz
Dark Spectrum Present: Yes
Reference Spectrum Present: Yes
Processed Spectrum Present: Yes
Spectrometers: JAZA3586
Integration Time (usec): 122000 (JAZA3586)
Spectra Averaged: 10 (JAZA3586)
Boxcar Smoothing: 1 (JAZA3586)
Correct for Electrical Dark: No (JAZA3586)
Strobe/Lamp Enabled: Yes (JAZA3586)
Correct for Detector Non-linearity: No (JAZA3586)
Correct for Stray Light: No (JAZA3586)
Number of Pixels in Processed Spectrum: 2048
>>>>>Begin Processed Spectral Data<<<<<
W	D	R	S	P
191.335022	0.000000	0.000000	0.000000	0.000000
191.713211	230.487015	226.177490	231.973083	-34.483356
192.091385	464.540619	461.122711	459.265137	154.348297
192.469528	699.262878	689.975098	690.643799	92.800201
192.847641	705.429993	700.228821	692.798584	242.856979
193.225739	712.637390	707.064697	713.974792	-23.999212
193.603790	720.067688	719.101746	736.042786	-1653.835449
193.981842	730.247070	730.024231	745.404968	-6802.163574
194.359863	731.956055	737.157288	746.519470	279.999298
194.737854	743.324402	750.606140	748.971436	77.550629
195.115829	747.708252	749.045715	753.875427	461.109833
195.493774	751.200500	747.485352	754.023987	-75.999275
195.871704	747.262451	748.451355	749.863098	218.743256
196.249603	749.342957	748.897156	755.212891	-1316.716919
196.627457	749.342957	748.599915	752.389404	-409.996704
197.005310	751.051941	736.711487	751.274841	-1.554347
197.383133	746.073547	736.488586	741.763977	44.961792
197.760910	752.835144	744.438965	752.315002	6.194980
198.138687	747.039551	751.572083	750.531799	77.048515
198.516449	743.695862	751.274902	755.287170	152.938995
198.894180	736.042725	739.906555	743.324524	188.460632
199.271866	747.039551	737.677429	743.324463	39.682114
199.649536	740.575256	732.327637	740.649597	-0.901361
200.027191	736.488586	738.049011	737.528809	66.662758
200.404816	724.154297	736.191406	733.516418	77.777161
200.782410	728.018066	753.726807	736.637207	33.526112
201.159988	731.807434	764.575012	746.073669	43.537655
201.537537	730.395752	777.132141	750.903320	43.879230
201.915070	730.172852	772.450989	746.965271	39.718922
202.292557	730.395752	769.999084	738.940613	21.576117
202.670029	734.036560	770.593506	734.110901	0.203356
203.047485	739.089111	774.828796	738.494690	-1.663197
203.424911	743.027161	773.862854	747.262451	13.735026
203.802292	745.850769	771.782410	751.349121	21.203255
204.179688	744.067383	772.079590	742.878601	-4.243799
204.557037	738.643372	773.268372	731.064453	-21.888573
204.934357	734.631042	775.125977	729.504150	-12.660577
205.311661	729.727051	779.138367	733.516418	7.669028
205.688934	724.377197	775.200256	745.033386	40.643341
206.066177	722.965515	764.872253	746.445129	56.028255
206.443390	727.126465	762.494446	750.457520	65.966599
206.820587	730.098572	770.519226	747.931152	44.117496
207.197769	727.052063	775.868958	745.033386	36.834221
207.574921	730.990173	770.965027	747.336731	40.892101
207.952042	729.058289	761.602844	746.296570	52.968250
208.329147	729.355469	759.893860	745.627747	53.284660
208.706223	763.980530	802.617920	783.002014	49.230770
209.083267	763.089050	805.664368	783.745117	48.516529
209.460297	765.466614	806.630371	785.082520	47.653339
209.837280	723.337097	754.172607	746.296448	74.457504
210.214264	721.330872	751.497742	746.593750	83.743782
210.591217	715.163757	755.955872	738.866272	58.105629
210.968124	718.730225	770.147705	736.414368	34.393250
211.345016	724.525879	775.571777	741.095398	32.460041
211.721893	733.442200	771.039368	753.726807	53.952488
212.098724	733.070618	762.717468	750.680359	59.398354
212.475555	735.968506	771.633789	745.850647	27.708012
212.852356	737.528809	771.485168	745.553467	23.632269
213.229126	738.048889	778.023743	743.101501	12.639477
213.605865	733.219238	765.169434	735.448242	6.976495
213.982590	727.720886	772.228210	728.389465	1.502178
214.359283	718.655945	767.918640	731.807434	26.696650
214.735931	723.262695	760.711243	733.516418	27.380831
215.112579	714.569275	755.064209	735.151184	50.825886
215.489197	721.033630	757.590576	731.881836	29.674814
215.865799	718.433044	761.974426	737.677429	44.197918
216.242355	727.200684	759.299500	735.225403	25.000048
216.618896	730.395752	755.732910	742.804260	48.973560
216.995407	730.470032	754.469788	737.231628	28.173607
217.371902	726.754883	761.677185	734.556702	22.340506
217.748367	720.513489	772.451111	729.801331	17.882687
218.124802	722.965515	772.896973	733.219299	20.535719
218.501236	726.606262	765.466614	736.414307	25.239206
218.877609	729.949890	752.612244	738.940613	39.672501
219.253983	726.680664	755.955872	738.420410	40.101326
219.630295	723.559875	760.042480	743.472961	54.582413
220.006592	720.959290	762.420227	737.083008	38.888939
220.382889	715.163635	757.739075	732.847717	41.535877
220.759140	715.758118	752.612305	726.829285	30.040459
221.135391	714.717957	753.652527	727.497986	32.824375
221.511581	715.089355	752.537903	731.436035	43.651039
221.887772	711.968750	755.807312	729.058350	38.983028
222.263931	716.278259	766.209656	736.711487	40.922604
222.640060	724.971680	773.565674	733.665039	17.889782
223.016159	730.990173	765.318054	740.575195	27.921974
223.392212	729.875671	756.921875	736.934387	26.098730
223.768265	723.559875	757.070496	735.671204	36.141762
224.144302	719.398926	765.763855	736.562805	37.019100
224.520294	717.169922	762.494568	737.528809	44.917915
224.896286	717.392761	766.878418	744.141785	54.054092
225.272217	722.668274	773.862793	740.946777	35.704025
225.648148	728.612488	779.658386	742.061279	26.346468
226.024048	729.801270	773.714172	742.358459	28.595673
226.399902	721.107910	764.500732	741.615417	47.260136
226.775772	712.265808	763.014648	739.163391	53.001373
227.151581	713.231750	759.819641	733.219238	42.902752
227.527374	710.333984	762.122986	736.785828	51.076180
227.903137	711.968689	767.175598	734.631042	41.049850
228.278870	711.151367	777.057861	740.278015	44.193897
228.654572	716.278259	776.834961	736.785828	33.865067
229.030273	716.724121	774.680176	732.327637	26.923012
229.405930	715.386536	767.398621	729.727051	27.571507
229.781555	717.095520	760.116882	730.692932	31.606186
230.157181	722.965515	755.732971	738.643372	47.845814
230.532761	722.668274	750.977539	731.213074	30.183758
230.908325	723.634094	763.460449	732.327637	21.828617
231.283859	719.398926	764.946533	735.448303	35.236488
231.659332	721.479431	769.479004	748.302734	55.882378
232.034821	719.176086	759.150940	745.627747	66.170746
232.410263	722.593933	756.030273	740.723816	54.222092
232.785690	722.668213	757.739075	735.076843	35.381596
233.161087	717.838623	762.123047	730.544373	28.691238
233.536469	713.231750	762.791748	725.714661	25.187471
233.911804	711.968567	762.717468	722.296692	20.351425
234.287140	725.045898	759.448059	726.086182	3.023889
234.662430	727.497864	758.630798	733.144958	18.138653
235.037704	727.126465	763.683350	744.513367	47.561226
235.412933	720.067627	763.014648	742.729980	52.768162
235.788162	717.615723	766.655457	741.541199	48.787941
236.163345	719.324646	762.123047	731.138855	27.604324
236.538513	721.925293	765.466614	739.534973	40.443607
236.913635	725.714661	763.683350	737.974609	32.289627
237.288742	723.931458	769.999023	745.925049	47.742031
237.663834	720.959290	775.348877	742.358398	39.344128
238.038879	712.711731	774.977356	740.278015	44.272076
238.413910	716.426819	764.723633	732.699158	33.692364
238.788910	718.135803	758.928040	729.429871	27.686806
239.163879	724.897400	759.076599	734.779602	28.912912
239.538834	718.061523	760.488342	739.460754	50.437981
239.913757	723.114075	772.525391	742.358582	38.947571
240.288651	726.531982	778.989746	736.340027	18.697031
240.663528	732.104736	784.265198	738.048889	11.395898
241.038361	726.383484	771.410828	738.197571	26.237583
241.413177	718.804504	769.701843	741.689758	44.963558
241.787979	721.850891	766.729736	734.854004	28.973814
242.162735	719.919006	772.748291	734.928223	28.410788
242.537476	718.804504	764.946472	730.470032	25.281816
242.912170	713.454773	771.113586	737.900391	42.397018
243.286865	715.237976	769.850403	737.083008	40.000111
243.661514	714.272034	777.577942	746.222229	50.469532
244.036148	720.141907	782.556213	740.278015	32.262009
244.410751	716.649719	785.231140	735.374023	27.302298
244.785339	720.810730	785.825684	726.086182	8.114213
245.159882	716.724060	775.794739	727.869446	18.867882
245.534378	717.615662	774.085754	735.745605	32.105392
245.908890	714.569275	765.838196	745.181946	59.709995
246.283356	713.380432	770.667908	741.615540	49.286701
246.657791	716.946960	766.432617	738.940613	44.444500
247.032196	718.878906	782.927795	737.454590	29.002352
247.406586	715.906738	777.057800	739.237793	38.153149
247.780960	718.061523	784.785339	734.631042	24.832991
248.155289	716.352539	772.228210	726.086182	17.420179
248.529602	715.163635	773.937195	723.039734	13.400751
248.903870	714.569275	770.073425	731.733215	30.923706
249.278122	713.603333	769.627625	739.534973	46.286423
249.652344	715.683838	769.330383	742.804260	50.553902
250.026550	721.033630	773.268494	734.259460	25.319929
250.400711	731.138855	779.064026	737.751709	13.798290
250.774857	733.070618	785.379700	741.020996	15.198849
251.148987	718.432922	782.779114	743.547363	39.030190
251.523071	713.751953	781.441650	739.163513	37.541252
251.897125	718.358704	778.989746	740.426575	36.396984
252.271164	725.120300	772.451111	740.649597	32.810123
252.645187	720.439148	767.621399	738.197510	37.637802
253.019165	709.368103	763.088928	731.213074	40.663879
253.393112	710.111084	777.132141	747.188171	55.321548
253.767044	714.494934	787.608887	743.027161	39.024326
254.140930	716.129578	795.039124	749.640137	42.467052
254.514801	715.089355	792.512756	741.764099	34.453075
254.888657	715.683777	782.927795	741.095398	37.790157
255.262466	727.869446	778.321045	740.278015	24.594997
255.636276	731.956116	777.726563	734.631042	5.844223
256.010010	735.299744	776.834961	745.256348	23.971474
256.383759	732.401855	776.834961	749.045715	37.458241
256.757446	729.132568	776.612000	746.296570	36.150394
257.131134	722.891113	785.454041	746.296570	37.411064
257.504791	720.810730	780.104248	738.940613	30.576500
257.878418	715.609558	773.416992	735.894104	35.089855
258.252014	720.884949	769.999084	735.151123	29.046982
258.625580	722.668274	783.893738	739.832214	28.033991
258.999115	729.132629	794.296082	745.256348	24.743500
259.372650	721.850891	804.401306	746.816650	30.243046
259.746124	716.278259	798.308411	743.101563	32.699322
260.119598	715.460938	806.927551	741.392578	28.350935
260.493042	721.925232	803.955383	743.175781	25.905779
260.866425	725.640320	810.865540	749.788757	28.334848
261.239838	724.005676	805.590088	750.903320	32.969097
261.613159	722.519714	808.562195	743.101501	23.920494
261.986511	722.742615	802.469421	737.900330	19.012068
262.359802	721.999512	790.878113	729.429871	10.787616
262.733063	721.405090	777.206482	719.621826	-3.195734
263.106293	714.494934	778.246643	719.696106	8.158483
263.479523	716.649719	788.723328	727.349365	14.845443
263.852692	715.237976	794.296082	743.101563	35.244438
264.225861	715.163635	787.311584	738.717590	32.646744
264.598969	716.278137	779.955627	737.454529	33.255695
264.972076	709.293762	782.556213	726.234863	23.123852
265.345154	710.408386	798.085510	732.996338	25.762651
265.718201	712.563049	803.063782	735.076843	24.876919
266.091217	728.018066	812.500244	748.376953	24.098440
266.464203	736.711487	818.815979	747.113831	12.669641
266.837158	738.940613	817.404297	749.120056	12.973446
267.210114	728.835388	811.905823	740.352295	13.864026
267.583038	727.275085	802.246521	742.507141	20.317146
267.955902	718.433044	812.946045	741.689758	24.606894
268.328766	718.581604	820.153503	744.736145	25.749781
268.701569	711.002747	818.593079	737.305908	24.447514
269.074371	717.095520	810.642761	740.872375	25.416950
269.447144	718.804504	811.237061	739.534973	22.427670
269.819885	719.844727	814.580750	739.980774	21.254900
270.192596	719.027405	823.719910	735.968506	16.181770
270.565277	719.547546	835.831238	739.832214	17.444120
270.937927	722.816833	840.512390	744.438965	18.371239
271.310577	718.507324	838.803467	749.342957	25.633102
271.683136	713.900574	832.339111	742.878601	24.466722
272.055725	712.934570	836.648682	737.825989	20.120113
272.428284	712.414551	837.317383	728.909668	13.206360
272.800812	721.628113	837.317383	729.949951	7.193267
273.173279	725.268860	842.369934	729.578430	3.680214
273.545776	732.773438	850.394714	735.745544	2.526845
273.918152	732.476257	854.109802	739.757874	5.986520
274.290558	729.652649	848.834290	740.798157	9.351699
274.662964	729.206848	849.502991	742.878601	11.365080
275.035278	716.872620	849.354431	744.141785	20.583328
275.407593	718.804504	855.224365	747.782532	21.241795
275.779907	714.272034	855.298645	746.073547	22.550009
276.152161	721.330750	860.202637	744.216064	16.479445
276.524384	721.256531	861.242859	750.085938	20.594444
276.896606	718.284363	859.905334	745.033386	18.887756
277.268799	717.467102	863.546204	746.593750	19.938955
277.640930	711.225647	860.351135	737.008606	17.289438
278.013031	717.690125	862.134460	741.541077	16.512211
278.385162	719.919128	863.471985	734.631042	10.248430
278.757233	721.851013	868.747375	741.095276	13.100572
279.129272	720.364929	873.502747	742.507080	14.458970
279.501282	718.135742	867.038513	744.736145	17.864277
279.873230	719.696106	866.295593	738.569092	12.873841
280.245178	719.770508	872.091064	733.070618	8.731658
280.617126	720.587830	878.629700	743.473083	14.480500
280.988983	720.736389	893.490234	747.113831	15.268802
281.360870	723.559875	906.418884	757.590576	18.610350
281.732697	721.479309	909.391052	747.633972	13.918589
282.104492	723.411316	910.282654	744.438965	11.252474
282.476288	727.720886	907.533447	737.974609	5.702451
282.848053	730.470032	919.198975	740.055115	5.078756
283.219757	730.247131	917.341370	744.513245	7.625095
283.591461	724.302917	922.022461	758.259277	17.174004
283.963135	720.736389	911.991516	759.522400	20.279724
284.334747	722.742615	922.988464	758.556458	17.884937
284.706360	712.860352	934.505371	744.067444	14.079762
285.077942	721.553711	951.074890	747.782532	11.427626
285.449524	714.569275	948.028503	750.754700	15.499677
285.821014	715.683777	947.656982	750.680420	15.086502
286.192535	714.940735	953.526855	738.420410	9.841174
286.563995	713.380432	965.192383	732.996338	7.789903
286.935425	714.494934	965.043762	732.179016	7.058138
287.306824	709.888184	965.117981	743.621643	13.216897
287.678223	710.705566	962.591736	745.924988	13.982277
288.049561	718.581604	964.523621	742.952881	9.909359
288.420898	720.662109	968.758789	739.683594	7.666965
288.792145	726.680664	973.365540	740.129395	5.451786
289.163452	722.816895	974.182922	742.804260	7.951499
289.534668	723.857117	977.600891	741.689758	7.027814
289.905914	717.987122	984.956848	733.665039	5.872545
290.277039	717.764343	997.811218	742.581360	8.861736
290.648193	722.148193	1011.260010	746.445129	8.403993
291.019318	729.727051	1023.742859	752.983704	7.910001
291.390381	732.253357	1021.736633	742.209778	3.439377
291.761475	727.497986	1015.941101	735.819824	2.885088
292.132507	725.714600	1013.711975	731.658936	2.064024
292.503510	723.559875	1017.129944	735.596985	4.100251
292.874481	733.962219	1020.993713	752.240784	6.368139
293.245422	733.516418	1020.547913	758.556458	8.723795
293.616364	734.408142	1026.120483	756.847473	7.692280
293.987213	719.250305	1029.835693	745.033386	8.301447
294.358093	715.832458	1049.748779	746.296570	9.123277
294.728943	709.888184	1070.182007	743.621582	9.362747
295.099731	711.448547	1094.033203	742.061340	8.001574
295.470490	715.089355	1101.240723	736.637207	5.580157
295.841248	720.959290	1111.345825	736.562805	3.996940
296.211975	716.575439	1125.389038	733.070618	4.034890
296.582642	713.900574	1131.779053	730.024231	3.858456
296.953308	716.575439	1146.862427	733.962219	4.040740
297.323883	719.176025	1147.382690	728.835388	2.255771
297.694519	716.649719	1166.181274	732.550476	3.537184
298.065063	711.597168	1170.639404	730.024231	4.014241
298.435608	715.683777	1169.450562	733.070618	3.831669
298.806122	714.569275	1152.063599	733.962219	4.432731
299.176575	716.278137	1129.327026	737.157227	5.054871
299.547028	709.442383	1123.531494	736.042786	6.423835
299.917450	708.327820	1130.664551	741.169678	7.776226
300.287872	705.058411	1136.311523	741.541199	8.459716
300.658234	711.894348	1133.933960	749.045715	8.802815
301.028564	713.454773	1128.732544	741.987000	6.870636
301.398865	720.141907	1118.776001	743.398682	5.834116
301.769135	721.405090	1120.484985	743.027161	5.417980
302.139374	727.126404	1119.147583	752.315002	6.425316
302.509583	728.983948	1130.515869	751.646301	5.643973
302.879791	727.572266	1142.032837	755.287109	6.686967
303.249939	731.436035	1147.679810	748.525635	4.105671
303.620087	722.371094	1145.450806	753.132324	7.270788
303.990173	721.850891	1131.704712	747.188171	6.182029
304.360260	717.021240	1141.364136	746.890930	7.039046
304.730286	722.296692	1152.286621	745.181946	5.322277
305.100281	726.531982	1157.116333	743.250061	3.882649
305.470276	729.281189	1153.624023	751.720642	5.288048
305.840179	733.293518	1157.859253	749.714417	3.867693
306.210144	727.943787	1163.506348	753.949707	5.970651
306.579987	733.590759	1178.441284	750.308838	3.758134
306.949890	733.070618	1179.109985	747.856873	3.315011
307.319702	735.894226	1200.286133	747.856934	2.575994
307.689484	729.652771	1199.543091	744.513367	3.162567
308.059265	731.213074	1214.329224	746.296570	3.122126
308.429016	730.172852	1223.171265	744.290344	2.863598
308.798737	728.315247	1238.477661	743.324463	2.942047
309.168396	722.593933	1257.053345	745.479187	4.281944
309.538055	726.011902	1273.994507	746.742371	3.783052
309.907684	725.937561	1290.266724	753.206726	4.832138
310.277313	719.844727	1300.297485	748.451355	4.928330
310.646851	711.374207	1314.340698	755.881592	7.381403
311.016388	709.516663	1327.418091	756.178772	7.551708
311.385895	717.764343	1336.111450	759.002258	6.669056
311.755371	716.575439	1333.436646	748.599915	5.191520
312.124817	712.860291	1330.167358	741.764099	4.682241
312.494232	712.563049	1334.328247	738.643372	4.194561
312.863617	719.027344	1329.795776	739.906555	3.418515
313.232971	727.720764	1324.000244	746.296570	3.115285
313.602295	725.491760	1318.947632	745.702148	3.405542
313.971619	729.875671	1328.235352	747.485352	2.942992
314.340820	730.767273	1338.860718	740.203796	1.551821
314.710083	739.460693	1354.092651	751.349121	1.934235
315.079285	727.943665	1370.959473	754.172607	4.079051
315.448486	730.098572	1393.918945	757.664795	4.152663
315.817596	719.696106	1393.919067	745.850647	3.879212
316.186707	721.107910	1373.560181	741.987000	3.200094
316.555786	713.083191	1353.498413	737.380188	3.793944
316.924866	712.042969	1334.402466	733.813660	3.498089
317.293884	721.405090	1337.523071	733.293640	1.929590
317.662872	726.086182	1336.037231	746.816650	3.398710
318.031830	722.073792	1354.464355	758.259277	5.722015
318.400757	719.919128	1366.575684	764.872253	6.951623
318.769684	716.203918	1378.538452	756.847473	6.136409
319.138550	723.559875	1372.742798	749.640137	4.017398
319.507416	713.380432	1379.875854	742.507141	4.370129
319.876190	706.916016	1375.714844	737.305969	4.543961
320.244995	711.076965	1395.479492	742.432800	4.581490
320.613770	722.445313	1386.563110	747.931152	3.837548
320.982483	726.977844	1387.083130	749.937317	3.478153
321.351166	716.278259	1376.160767	745.999268	4.503985
321.719818	709.070801	1377.498169	737.454407	4.246326
322.088440	707.882019	1390.501099	741.318298	4.898234
322.457062	715.980957	1405.733276	745.702148	4.308966
322.825623	721.107910	1423.194336	757.293274	5.153975
323.194183	733.665039	1440.135376	754.841309	2.997475
323.562653	735.225403	1464.432251	750.160339	2.048107
323.931183	732.922058	1502.847046	747.931213	1.949431
324.299591	718.507324	1541.335815	743.175781	2.998007
324.668060	715.312317	1560.505859	746.742371	3.718681
325.036407	716.203918	1577.818359	742.432800	3.044155
