Jaz Data File
++++++++++++++++++++++++++++++++++++
Date: Fri Jun 04 16:52:43 2021
User: jaz
Dark Spectrum Present: Yes
Reference Spectrum Present: Yes
Processed Spectrum Present: Yes
Spectrometers: JAZA3586
Integration Time (usec): 24600 (JAZA3586)
Spectra Averaged: 10 (JAZA3586)
Boxcar Smoothing: 1 (JAZA3586)
Correct for Electrical Dark: No (JAZA3586)
Strobe/Lamp Enabled: Yes (JAZA3586)
Correct for Detector Non-linearity: No (JAZA3586)
Correct for Stray Light: No (JAZA3586)
Number of Pixels in Processed Spectrum: 2048
>>>>>Begin Processed Spectral Data<<<<<
W	D	R	S	P
191.335022	0.000000	0.000000	0.000000	0.000000
191.713211	227.812149	233.756348	229.075317	21.250439
192.091385	455.401367	470.633423	464.614960	60.488174
192.469528	695.027649	713.083191	701.120544	33.745293
192.847641	705.281433	715.386536	712.191589	68.382843
193.225739	723.634216	724.748718	723.336914	-26.675795
193.603790	731.584534	727.275085	732.476135	-20.689461
193.981842	739.757813	742.507080	736.860046	-105.401382
194.359863	740.649475	740.798096	733.739319	-4649.527832
194.737854	744.141785	746.890930	731.436035	-462.170868
195.115829	742.284241	741.243958	739.980774	221.426895
195.493774	742.655762	746.445129	748.748535	160.786026
195.871704	739.609314	740.055176	756.847473	3866.256104
196.249603	745.256348	746.222229	748.376953	323.083740
196.627457	745.702148	748.674133	745.181946	-17.503542
197.005310	744.439026	752.835144	743.695862	-8.851281
197.383133	741.689758	753.875427	749.045715	60.365639
197.760910	735.076843	761.602844	749.491516	54.341675
198.138687	738.049011	765.838196	750.457520	44.652294
198.516449	736.191345	752.983826	742.581360	38.052834
198.894180	749.788757	743.398743	742.061218	120.931473
199.271866	750.085999	743.472961	734.259460	239.323288
199.649536	751.274902	751.497742	738.791992	-5601.752930
200.027191	749.342957	753.132385	733.070618	-429.414032
200.404816	752.760925	750.457520	737.305908	670.963745
200.782410	750.308899	760.265381	736.934387	-134.329697
201.159988	742.952881	773.119812	747.782654	16.010157
201.537537	735.671204	777.206482	750.085999	34.704945
201.915070	735.151184	784.116699	751.572021	33.535515
202.292557	731.064453	777.578064	744.810547	29.552841
202.670029	735.522644	780.772949	742.284180	14.942519
203.047485	736.042786	774.234375	741.615479	14.591413
203.424911	739.832214	775.571777	739.534973	-0.831687
203.802292	732.030457	776.686340	737.454529	12.146378
204.179688	728.686768	769.924805	735.522705	16.576777
204.557037	725.566101	758.184998	734.333801	26.879206
204.934357	724.451477	759.225281	731.733215	20.940298
205.311661	722.816895	760.116882	733.219238	27.888330
205.688934	724.377258	763.163269	729.801331	13.984610
206.066177	725.120300	758.036377	733.367859	25.056324
206.443390	730.544434	759.002258	734.631042	14.360229
206.820587	728.761169	761.825745	738.866211	30.561535
207.197769	722.965515	764.203430	734.556641	28.107933
207.574921	721.553711	757.813477	734.556641	35.860489
207.952042	718.210144	756.847473	732.179016	36.153824
208.329147	721.330811	761.602844	735.299744	34.686436
208.706223	727.126465	778.543884	737.305969	19.797773
209.083267	733.813721	777.875183	743.324402	21.585033
209.460297	745.404968	764.426453	748.971436	18.749680
209.837280	734.853943	752.686523	743.844543	50.416710
210.214264	733.219238	755.510071	734.333801	5.000096
210.591217	719.547546	763.460449	727.126404	17.258839
210.968124	720.513489	763.831970	722.965515	5.660462
211.345016	714.123474	763.906250	727.275085	26.417995
211.721893	713.677551	762.123047	728.984070	31.595339
212.098724	713.528992	764.723633	733.962341	39.913063
212.475555	717.764221	758.482239	737.825989	49.270000
212.852356	718.507324	753.875427	736.042786	49.579876
213.229126	714.420593	755.435730	733.665039	46.920349
213.605865	713.900574	759.076599	729.281189	34.045967
213.982590	721.553711	764.352051	727.497986	13.889031
214.359283	731.733215	758.630676	727.275085	-16.574537
214.735931	737.900330	759.002258	734.185242	-17.605442
215.112579	735.299744	759.448059	735.894226	2.461797
215.489197	728.909668	757.664856	737.157410	28.682621
215.865799	715.906738	747.559631	734.036621	57.277176
216.242355	709.516663	740.129395	730.767334	69.417755
216.618896	705.950134	738.866211	735.894226	90.971024
216.995407	700.154541	745.776367	729.652771	64.658150
217.371902	698.594238	745.479187	730.693054	68.462944
217.748367	703.200989	746.445129	726.531982	53.951805
218.124802	713.008850	748.302734	732.253357	54.526463
218.501236	716.426819	754.915588	743.027161	69.111954
218.877609	716.724060	761.825745	737.380188	45.799015
219.253983	721.553711	768.141541	733.219238	25.039860
219.630295	725.863220	773.416992	730.990173	10.781381
220.006592	727.423584	768.810242	736.265686	21.364620
220.382889	724.897278	761.231445	735.076843	28.016510
220.759140	723.634094	762.048767	726.754944	8.124108
221.135391	721.999512	764.946533	727.200745	12.110812
221.511581	719.250305	757.962097	730.544373	29.174747
221.887772	714.792175	749.342957	734.110901	55.914005
222.263931	707.287598	745.404846	731.435974	63.352886
222.640060	707.436218	755.881592	731.510254	49.693157
223.016159	711.968689	757.219055	730.321350	40.558041
223.392212	718.953125	762.866028	727.423645	19.289364
223.768265	726.829163	756.030212	724.451477	-8.142466
224.144302	725.714661	758.853699	723.931396	-5.381158
224.520294	732.104675	760.191162	723.559875	-30.423170
224.896286	724.080078	766.061035	735.522644	27.256563
225.272217	725.417480	767.101318	739.906494	34.759308
225.648148	720.513489	765.020813	742.730042	49.916622
226.024048	723.931396	771.633789	733.442200	19.937790
226.399902	724.005676	766.358215	734.556641	24.912235
226.775772	721.033630	769.033203	733.367859	25.696539
227.151581	722.965515	763.534729	733.070618	24.908302
227.527374	724.674500	762.717468	725.194580	1.367087
227.903137	724.302979	759.745361	724.451477	0.418986
228.278870	721.776672	766.135437	728.686768	15.577744
228.654572	716.946960	772.153992	732.773438	28.667503
229.030273	719.027405	773.119812	737.454529	34.066010
229.405930	718.730164	768.215820	732.996338	28.828907
229.781555	712.637390	773.045471	738.048889	42.066391
230.157181	708.699402	778.469666	732.402039	33.972404
230.532761	705.429993	778.618164	733.219299	37.969669
230.908325	713.900574	770.073425	727.052063	23.412537
231.283859	718.284424	765.763855	733.367859	31.768356
231.659332	720.885010	767.398499	734.259521	28.754049
232.034821	718.432922	766.283997	736.340027	37.422577
232.410263	717.095520	760.042664	734.259521	39.965408
232.785690	724.377197	762.791809	742.507141	47.195438
233.161087	725.789001	770.965088	742.729980	37.499882
233.536469	723.411316	775.125977	747.931152	47.413704
233.911804	717.318420	764.054871	737.974609	44.197170
234.287140	717.764343	755.658691	738.123230	53.725391
234.662430	718.655945	761.602844	735.596985	39.446480
235.037704	714.346375	766.729797	730.915833	31.631109
235.412933	710.779785	777.206543	728.612488	26.845661
235.788162	711.299988	767.101318	725.789001	25.965355
236.163345	718.581726	767.621399	734.928223	33.333210
236.538513	722.371094	756.773193	731.064453	25.269852
236.913635	728.463867	759.448059	730.990234	8.153729
237.288742	724.674500	762.717468	726.234802	4.101422
237.663834	728.612549	767.844299	731.064453	6.249796
238.038879	728.389648	769.627625	728.315186	-0.180569
238.413910	733.219238	771.633789	731.213074	-5.222408
238.788910	730.247070	770.370605	731.361633	2.777828
239.163879	721.925232	776.834961	728.909668	12.719851
239.538834	719.919006	779.658508	724.302917	7.338379
239.913757	715.386536	777.578064	722.668274	11.708570
240.288651	724.005676	777.503662	729.058289	9.444490
240.663528	716.946960	767.472839	728.463867	22.794075
241.038361	717.318420	772.674011	721.256531	7.114205
241.413177	712.117188	772.674011	716.501160	7.239436
241.787979	715.460876	777.652344	718.655945	5.137471
242.162735	724.748718	775.868958	731.213074	12.645393
242.537476	723.485596	767.324219	730.321472	15.593274
242.912170	726.903564	772.674011	729.727051	6.168798
243.286865	717.615723	778.618225	730.767273	21.559034
243.661514	722.222473	795.039063	736.117004	19.081547
244.036148	727.275085	798.308411	732.030457	6.694563
244.410751	724.971680	802.320801	726.234802	1.633015
244.785339	716.798340	791.323975	719.696106	3.888281
245.159882	710.705505	785.676941	721.702332	14.668021
245.534378	718.433044	780.624329	724.154297	9.199444
245.908890	725.417480	791.769836	724.005676	-2.127738
246.283356	724.748718	791.769836	724.823059	0.110921
246.657791	712.860291	796.227966	720.290588	8.912684
247.032196	712.042969	794.518982	727.572266	18.828865
247.406586	710.556946	803.955383	732.996277	24.025381
247.780960	717.987244	811.088562	739.609192	23.224106
248.155289	720.810730	816.661194	742.952942	23.100788
248.529602	720.885071	813.020447	744.364685	25.483822
248.903870	724.600159	798.605652	742.209961	23.795263
249.278122	727.572205	786.494324	733.665100	10.340591
249.652344	734.185120	787.831787	724.748718	-17.589912
250.026550	732.624756	794.890442	725.937561	-10.739776
250.400711	728.463867	803.435364	728.612488	0.198236
250.774857	722.668274	797.788330	733.887939	14.935646
251.148987	726.754883	800.240295	732.476257	7.785728
251.523071	720.513489	798.382813	734.779602	18.320581
251.897125	717.541321	803.732605	733.962219	19.051693
252.271164	715.460938	803.658203	729.949890	16.427893
252.645187	718.358704	800.834717	731.956055	16.486431
253.019165	718.878845	801.800598	734.110840	18.369118
253.393112	715.386536	806.184509	733.888000	20.376518
253.767044	712.265869	811.014160	729.355469	17.306223
254.140930	713.231750	811.905762	718.878845	5.722981
254.514801	708.699402	804.475586	719.696106	11.481668
254.888657	707.436218	806.481750	717.392761	10.052491
255.262466	707.584778	808.190674	724.897400	17.208357
255.636276	714.569336	814.209167	726.903503	12.378752
256.010010	725.045959	819.707520	735.002502	10.518043
256.383759	726.977783	818.147278	734.928223	8.720504
256.757446	725.268860	815.695251	735.225403	11.010660
257.131134	726.457703	807.967834	726.160461	-0.364668
257.504791	732.922058	807.744873	720.959290	-15.988130
257.878418	729.727051	818.221619	728.463867	-1.427414
258.252014	721.033630	830.630127	733.070618	10.983004
258.625580	713.083191	857.527771	739.014893	17.952700
258.999115	723.336975	870.010559	731.733215	5.724439
259.372650	727.572266	890.369446	731.881836	2.647202
259.746124	730.915833	907.979309	740.203674	5.245487
260.119598	730.172852	925.589050	741.466797	5.779431
260.493042	724.674377	937.700378	742.952881	8.580410
260.866425	719.547546	929.527039	737.974609	8.775649
261.239838	716.798340	920.462097	736.042725	9.449097
261.613159	716.575439	903.892578	739.832214	12.415722
261.986511	723.782776	898.617004	737.677429	7.947330
262.359802	720.587830	898.171204	737.900330	9.748942
262.733063	726.457703	888.586243	736.042725	5.911989
263.106293	723.336975	890.815369	736.711487	7.985813
263.479523	724.080078	880.413025	737.380188	8.507554
263.852692	720.216309	882.121887	731.658875	7.067431
264.225861	717.021301	872.165344	729.281250	7.902301
264.598969	716.798340	875.731934	732.327637	9.770934
264.972076	717.318420	881.378906	737.974609	12.590593
265.345154	720.884949	885.539795	738.940613	10.965765
265.718201	720.290527	884.425293	735.374023	9.189702
266.091217	722.296692	894.679016	732.476135	5.905155
266.464203	723.782898	904.189880	734.705261	6.054291
266.837158	725.640381	917.192871	731.510254	3.064368
267.210114	720.662109	921.502380	733.962219	6.622232
267.583038	718.730164	932.944885	736.117004	8.116548
267.955902	725.789001	940.672424	737.528809	5.463338
268.328766	732.030457	944.313293	736.414307	2.065099
268.701569	735.448303	944.536133	738.271790	1.350383
269.074371	728.389587	953.898254	734.185242	2.570036
269.447144	730.098450	965.192383	727.126465	-1.264169
269.819885	727.126465	967.793030	719.101807	-3.334347
270.192596	719.844727	974.926086	734.259521	5.651058
270.565277	716.501160	986.888855	741.541199	9.260791
270.937927	712.488770	1007.470642	745.404846	11.158678
271.310577	719.919128	1027.829590	737.974609	5.863874
271.683136	716.129639	1046.999634	733.665039	5.299786
272.055725	719.324707	1070.330688	735.002502	4.466532
272.428284	714.866455	1080.287476	735.968445	5.774706
272.800812	714.272034	1081.104614	736.340027	6.015821
273.173279	706.841797	1075.829224	734.482422	7.490940
273.545776	706.990417	1074.714478	733.590820	7.233795
273.918152	706.544617	1070.925049	742.284180	9.808311
274.290558	719.324646	1062.974609	743.175781	6.940532
274.662964	722.668274	1060.076904	739.014893	4.844754
275.035278	724.674500	1062.231812	731.956116	2.157150
275.407593	720.736389	1069.587524	735.151184	4.132076
275.779907	722.519714	1082.070557	734.705322	3.389120
276.152161	725.714661	1096.633911	733.962219	2.223546
276.524384	719.547546	1100.348999	730.024231	2.751220
276.896606	716.278259	1099.308716	733.962219	4.616855
277.268799	713.008850	1101.612183	740.946777	7.189317
277.640930	718.730225	1120.262085	743.547363	6.180615
278.013031	721.405090	1126.280640	737.231628	3.908988
278.385162	727.423645	1124.051636	727.943787	0.131141
278.757233	720.290527	1112.088867	725.640442	1.365477
279.129272	720.885010	1121.451050	735.671204	3.691325
279.501282	714.940735	1126.503540	741.095276	6.354933
279.873230	721.405090	1142.181396	737.528809	3.831898
280.245178	721.627991	1153.772705	724.748779	0.722163
280.617126	732.922058	1182.527832	719.696106	-2.941678
280.988983	735.819824	1211.357300	719.176086	-3.499985
281.360870	737.083008	1240.558228	727.497864	-1.903797
281.732697	730.024231	1264.335083	733.739258	0.695293
282.104492	731.881836	1286.031372	731.138672	-0.134109
282.476288	725.120300	1307.802124	732.179016	1.211419
282.848053	727.572266	1337.597534	740.426575	2.107177
283.219757	718.358704	1344.433350	739.312073	3.346785
283.591461	728.240967	1338.712036	738.791992	1.728342
283.963135	723.857117	1319.319092	729.281250	0.910912
284.334747	733.442200	1323.703003	733.219238	-0.037773
284.706360	726.234802	1343.616211	729.132629	0.469374
285.077942	718.655823	1375.789185	727.646484	1.368164
285.449524	711.968689	1407.739380	724.823059	1.847501
285.821014	713.380432	1428.395508	731.881836	2.587554
286.192535	727.349365	1448.234375	734.556641	0.999782
286.563995	730.024231	1464.655273	734.482422	0.606861
286.935425	731.584534	1477.732544	732.476257	0.119510
287.306824	727.423645	1477.583984	728.389587	0.128765
287.678223	721.999512	1468.593384	733.144836	1.492823
288.049561	723.708496	1459.082520	728.315247	0.626450
288.420898	724.600159	1445.708008	724.080017	-0.072131
288.792145	725.714661	1431.813354	725.789001	0.010528
289.163452	725.268860	1439.689453	728.612488	0.468020
289.534668	724.005676	1458.933960	732.253357	1.122243
289.905914	731.807434	1497.497070	730.618652	-0.155256
290.277039	730.470032	1524.617554	731.138733	0.084204
290.648193	727.275085	1567.267212	742.952881	1.866422
291.019318	723.931396	1603.675781	746.445129	2.559122
291.390381	724.823059	1622.845703	738.346191	1.505879
291.761475	731.584534	1625.372070	730.692932	-0.099755
292.132507	732.996399	1606.573364	730.172852	-0.323217
292.503510	726.457703	1592.604492	734.036560	0.875008
292.874481	727.052063	1575.737793	739.683594	1.488364
293.245422	719.844727	1582.053589	735.151123	1.775254
293.616364	719.324646	1606.647827	734.853943	1.750129
293.987213	713.083191	1643.724976	728.612488	1.668665
294.358093	717.689941	1684.962891	729.949951	1.267482
294.728943	724.228699	1731.848022	727.349365	0.309707
295.099731	726.531982	1778.807129	731.138733	0.437790
295.470490	727.646484	1814.398071	728.686768	0.095724
295.841248	726.680603	1831.562134	731.881836	0.470750
296.211975	727.497864	1847.537231	727.423645	-0.006626
296.582642	731.807434	1883.351196	730.172852	-0.141947
296.953308	724.822998	1932.688110	732.476257	0.633619
297.323883	720.885010	1981.281860	733.888000	1.031658
297.694519	716.129639	2010.185669	733.590820	1.349337
298.065063	721.479431	2014.866821	730.841553	0.723845
298.435608	728.389587	2000.229126	726.234863	-0.169418
298.806122	725.194519	1953.790039	724.748718	-0.036285
299.176575	720.959290	1911.065918	729.801270	0.742957
299.547028	708.699402	1871.239624	736.860046	2.422337
299.917450	714.494934	1845.308105	738.569031	2.128919
300.287872	721.553711	1829.927368	735.894104	1.293823
300.658234	731.584656	1815.289917	723.188416	-0.774772
301.028564	724.971680	1811.871704	734.779602	0.902376
301.398865	719.027405	1805.036011	738.940613	1.833614
301.769135	715.386536	1811.723267	749.342957	3.097262
302.139374	715.460938	1829.333008	735.448303	1.794404
302.509583	714.643555	1839.735352	735.819824	1.882182
302.879791	717.392761	1835.500122	729.949890	1.123070
303.249939	720.290527	1818.336304	734.482422	1.292468
303.620087	723.039795	1810.757324	735.894104	1.181769
303.990173	716.872620	1802.658203	741.987000	2.313015
304.360260	723.336975	1796.862671	735.151062	1.100494
304.730286	726.903503	1796.342407	723.188416	-0.347387
305.100281	727.349365	1810.311401	721.479431	-0.542026
305.470276	719.919128	1833.419556	726.903564	0.627250
305.840179	715.535156	1838.694946	734.631042	1.700193
306.210144	717.912903	1843.301758	733.516418	1.386500
306.579987	721.479492	1844.936523	734.110840	1.124328
306.949890	718.730286	1864.552368	740.649597	1.912977
307.319702	725.268860	1883.351074	743.472961	1.571918
307.689484	724.451477	1908.985718	741.020996	1.398821
308.059265	728.538147	1936.923462	733.219238	0.387384
308.429016	722.445313	1974.520508	727.423645	0.397607
308.798737	725.120178	2012.340698	730.172852	0.392526
309.168396	727.423584	2054.693359	731.287415	0.291111
309.538055	730.841553	2085.157471	735.968506	0.378564
309.907684	726.903503	2120.525391	736.860046	0.714436
310.277313	725.120300	2145.788330	737.900330	0.899579
310.646851	726.903503	2160.723145	742.655762	1.098622
311.016388	725.640381	2176.103760	742.135559	1.137235
311.385895	722.668213	2179.967529	739.906555	1.182896
311.755371	726.680664	2209.985840	741.169617	0.976802
312.124817	723.039795	2198.543213	738.569031	1.052470
312.494232	731.807556	2200.920654	738.271790	0.440009
312.863617	725.268860	2176.920898	724.897278	-0.025597
313.232971	727.943787	2170.531006	729.504089	0.108160
313.602295	721.256531	2157.825439	735.002441	0.956857
313.971619	718.581604	2158.642578	738.123230	1.357000
314.340820	718.953125	2167.038818	726.532043	0.523375
314.710083	730.618652	2188.735352	721.851013	-0.601299
315.079285	730.544250	2212.958008	723.708496	-0.461123
315.448486	737.751709	2256.350830	733.219238	-0.298464
315.817596	725.417480	2253.155518	731.658936	0.408542
316.186707	731.881775	2239.186768	726.606262	-0.349996
316.555786	724.005676	2196.165283	725.789001	0.121137
316.924866	723.931396	2165.849854	734.408020	0.726575
317.293884	717.615723	2137.986328	742.804260	1.773378
317.662872	720.885010	2133.454102	748.525574	1.956758
318.031830	725.194580	2139.621338	744.884766	1.392097
318.400757	725.120300	2152.549805	748.302734	1.624069
318.769684	723.039795	2168.004639	747.633972	1.702061
319.138550	721.776672	2195.868164	739.460693	1.199656
319.507416	732.550537	2220.759766	731.658936	-0.059911
319.876190	730.618652	2229.601807	723.336975	-0.485774
320.244995	733.070618	2225.738037	724.154358	-0.597337
320.613770	720.959290	2201.589600	723.559875	0.175640
320.982483	719.324646	2194.531006	728.538147	0.624557
321.351166	711.448547	2178.184326	732.550537	1.438704
321.719818	720.959290	2177.441406	735.522644	0.999899
322.088440	726.086182	2167.633057	736.860107	0.747386
322.457062	722.891174	2195.422607	737.751709	1.009183
322.825623	715.386536	2224.326416	735.894226	1.359079
323.194183	718.210144	2265.861572	729.058289	0.700942
323.562653	729.058289	2304.796143	727.720886	-0.084875
323.931183	727.572266	2363.272461	732.401917	0.295265
324.299591	722.965515	2415.061279	728.686768	0.338116
324.668060	722.073914	2481.636475	732.922058	0.616525
325.036407	722.965515	2527.184326	734.482422	0.638332
