Jaz Data File
++++++++++++++++++++++++++++++++++++
Date: Fri Jun 04 17:07:37 2021
User: jaz
Dark Spectrum Present: Yes
Reference Spectrum Present: Yes
Processed Spectrum Present: Yes
Spectrometers: JAZA3586
Integration Time (usec): 120000 (JAZA3586)
Spectra Averaged: 10 (JAZA3586)
Boxcar Smoothing: 1 (JAZA3586)
Correct for Electrical Dark: No (JAZA3586)
Strobe/Lamp Enabled: Yes (JAZA3586)
Correct for Detector Non-linearity: No (JAZA3586)
Correct for Stray Light: No (JAZA3586)
Number of Pixels in Processed Spectrum: 2048
>>>>>Begin Processed Spectral Data<<<<<
W	D	R	S	P
191.335022	0.000000	0.000000	0.000000	0.000000
191.713211	229.818314	229.892624	227.366318	-3299.671387
192.091385	460.082428	468.552979	458.819305	-14.911930
192.469528	686.408508	696.142273	686.111328	-3.053086
192.847641	692.724304	707.659180	692.575684	-0.995125
193.225739	702.606506	714.197754	704.241211	14.102921
193.603790	719.547546	727.423584	715.237976	-54.717491
193.981842	727.869446	730.915833	722.965515	-160.975311
194.359863	736.340027	734.408020	720.959290	796.101624
194.737854	738.791992	737.900208	735.968445	316.617615
195.115829	739.163513	739.312012	741.169678	1350.965942
195.493774	740.203796	734.631042	741.243896	-18.664024
195.871704	741.615479	730.247131	726.680664	131.371902
196.249603	741.912659	727.200745	728.240967	92.929390
196.627457	738.346191	728.166687	739.312073	-9.488491
197.005310	736.934387	731.658875	748.005554	-209.859543
197.383133	741.169678	738.346130	749.937317	-310.518585
197.760910	750.383118	746.445129	744.884766	139.623367
198.138687	758.556458	749.268738	742.209900	176.001846
198.516449	765.095154	740.203674	740.426575	99.104515
198.894180	755.064270	727.052185	737.454407	62.865234
199.271866	748.451355	730.544373	743.993164	24.896383
199.649536	735.819824	735.076843	742.507080	-900.057495
200.027191	733.144958	743.324524	744.513184	111.676918
200.404816	728.909668	743.547363	739.683594	73.603973
200.782410	730.544373	754.989929	741.541199	44.984970
201.159988	727.200684	768.513000	747.411072	48.920975
201.537537	725.566101	774.308594	734.185242	17.683012
201.915070	721.702332	775.051758	730.470032	16.434479
202.292557	726.606262	771.930969	720.810730	-12.786695
202.670029	730.470032	773.194153	727.423645	-7.130367
203.047485	734.259460	771.633789	722.965515	-30.218456
203.424911	728.389587	768.215820	730.247131	4.664122
203.802292	722.296692	763.163269	732.847717	25.818226
204.179688	716.872742	763.014648	739.683594	49.436302
204.557037	725.640381	759.819641	737.454529	34.565254
204.934357	727.052063	759.522461	739.014832	36.842075
205.311661	731.658875	760.934143	733.739319	7.106491
205.688934	723.188416	759.225159	726.680603	9.690630
206.066177	728.389648	764.054871	734.556702	17.291504
206.443390	721.851013	758.184998	730.470154	23.721981
206.820587	725.045959	758.259277	729.429871	13.199257
207.197769	728.761169	754.915710	721.182190	-28.977680
207.574921	732.773438	757.962097	725.714661	-28.023630
207.952042	733.219299	761.454285	726.531982	-23.684505
208.329147	719.101746	760.488342	722.445313	8.078864
208.706223	758.482178	803.212402	760.488342	4.485031
209.083267	762.717468	802.915222	760.265442	-6.099909
209.460297	767.547119	795.782166	759.968262	-26.842022
209.837280	729.132629	745.702148	722.222412	-41.704391
210.214264	718.061523	745.553528	721.850891	13.783526
210.591217	714.792236	749.045715	731.213074	47.939182
210.968124	715.981018	758.630798	728.315247	28.919794
211.345016	722.519714	766.432556	729.727051	16.412821
211.721893	724.971680	778.469666	726.977844	3.749981
212.098724	721.627991	778.469543	723.411316	3.137362
212.475555	712.860168	778.692566	727.572266	22.347807
212.852356	708.922180	769.850403	722.742615	22.683142
213.229126	712.117188	770.965027	728.166687	27.272879
213.605865	719.621826	762.048645	720.810730	2.802246
213.982590	725.120300	768.364441	724.748718	-0.859266
214.359283	720.513489	757.590515	721.702332	3.206414
214.735931	718.284424	757.218994	724.080078	14.885626
215.112579	707.733459	751.274841	723.039795	35.153538
215.489197	701.343445	748.302734	723.039795	46.202465
215.865799	704.241211	744.216003	719.621887	38.475937
216.242355	718.284424	742.804260	713.974854	-17.575853
216.618896	730.767273	749.417297	718.210144	-67.330360
216.995407	727.423645	758.184998	713.826172	-44.203106
217.371902	721.702332	761.602844	714.420654	-18.249582
217.748367	724.005676	764.352051	711.151367	-31.859886
218.124802	723.039734	757.887695	715.163635	-22.601318
218.501236	722.593933	754.841309	710.482605	-37.557564
218.877609	714.197754	751.274841	714.123474	-0.200339
219.253983	724.154297	754.767029	712.414551	-38.349228
219.630295	728.835449	757.590576	723.559875	-18.346550
220.006592	728.761047	758.927979	720.439209	-27.585962
220.382889	718.284363	751.126221	721.479431	9.728647
220.759140	717.169922	746.370850	716.872620	-1.018126
221.135391	713.306152	746.965271	720.810730	22.295824
221.511581	715.906738	745.181946	729.206848	45.431309
221.887772	711.225586	747.931152	736.562805	69.028275
222.263931	717.764343	757.739197	735.819824	45.167099
222.640060	717.541321	772.599670	739.460693	39.811169
223.016159	724.748718	769.553223	734.259460	21.227201
223.392212	717.764343	758.556458	737.825989	49.180206
223.768265	719.324646	756.253113	732.327637	35.211292
224.144302	708.699402	757.293396	730.544373	44.954056
224.520294	707.807800	757.293396	724.228577	33.182941
224.896286	717.021301	761.528564	725.566101	19.198664
225.272217	722.965515	765.912415	724.971680	4.671268
225.648148	734.853943	771.336609	731.064514	-10.386930
226.024048	723.634094	767.695801	729.132629	12.479170
226.399902	719.176025	770.370605	726.754883	14.804023
226.775772	702.235046	760.414063	717.169739	25.670238
227.151581	703.646790	756.401672	715.237976	21.971779
227.527374	703.721130	751.274841	716.278137	26.405945
227.903137	715.089355	760.636902	720.141907	11.092916
228.278870	718.433044	765.020813	718.953125	1.116346
228.654572	714.717957	763.609070	715.386658	1.367736
229.030273	711.002747	763.609070	712.117249	2.118570
229.405930	707.436279	760.636963	712.488770	9.497040
229.781555	708.402161	757.070374	721.182190	26.259501
230.157181	714.866516	755.807312	723.782776	21.778423
230.532761	711.597168	753.280945	730.098572	44.385143
230.908325	716.203918	762.568848	731.064453	32.051239
231.283859	715.089417	760.339783	734.408020	42.692699
231.659332	719.547546	759.671082	725.491760	14.814781
232.034821	715.535217	758.407898	719.844727	10.051877
232.410263	709.516663	755.732971	718.432922	19.292454
232.785690	702.978027	755.287109	723.411316	39.062603
233.161087	706.098816	748.377014	724.154297	42.706364
233.536469	708.773682	755.212891	718.358704	20.639935
233.911804	713.900574	747.411072	715.609558	5.099848
234.287140	713.751953	754.098328	712.637451	-2.762335
234.662430	707.584778	751.943542	719.621887	27.135809
235.037704	703.795410	758.928040	728.538147	44.878571
235.412933	706.321594	760.339783	723.337097	31.499580
235.788162	715.906738	763.683411	721.107910	10.886426
236.163345	724.748779	773.416992	715.237976	-19.542126
236.538513	728.018066	774.977356	726.383362	-3.481110
236.913635	730.693054	774.531555	721.627930	-20.678455
237.288742	733.739441	767.844238	720.067627	-40.087658
237.663834	732.104736	759.373779	725.863281	-22.888428
238.038879	729.949951	753.058105	740.500793	45.658524
238.413910	719.176025	747.039551	748.674133	105.866386
238.788910	711.522888	746.593750	735.522644	68.432182
239.163879	712.191589	752.017822	725.491760	33.395504
239.538834	713.603333	758.259277	719.175964	12.479037
239.913757	722.445374	761.157043	727.572266	13.243790
240.288651	721.330872	759.150940	730.544250	24.361084
240.663528	720.290527	765.243713	728.389587	18.016655
241.038361	713.900574	773.491394	725.491760	19.451296
241.413177	710.111084	772.005310	721.405090	18.247271
241.787979	708.402161	763.980652	721.405090	23.395615
242.162735	710.556946	760.339661	721.405090	21.790987
242.537476	710.854187	761.602844	718.730225	15.519696
242.912170	719.993408	775.125977	725.640320	10.242424
243.286865	717.838623	773.342712	726.160461	14.993198
243.661514	715.980957	770.965027	732.550476	30.135126
244.036148	715.609558	767.472717	730.915833	29.512808
244.410751	718.878723	774.457275	730.767273	21.390535
244.785339	723.931396	775.125977	728.909668	9.724216
245.159882	714.346375	765.838135	729.132568	28.715651
245.534378	718.581604	760.488342	727.126465	20.390184
245.908890	720.290527	768.661621	726.160461	12.135211
246.283356	720.290527	769.627625	723.857117	7.229022
246.657791	720.587830	765.243713	722.073914	3.327857
247.032196	718.061523	765.540955	728.538147	22.065605
247.406586	721.776672	764.797913	724.228577	5.699288
247.780960	714.494934	769.627625	726.531982	21.832869
248.155289	714.494934	767.175598	723.931458	17.912689
248.529602	715.312317	774.011414	727.720886	21.139284
248.903870	719.770508	769.330383	727.795166	16.191845
249.278122	715.832336	759.671082	724.748779	20.339184
249.652344	715.535156	757.961975	725.417480	23.292635
250.026550	711.820068	763.906250	722.371094	20.256861
250.400711	717.764343	776.091980	723.411316	9.681470
250.774857	720.290588	769.999084	720.142029	-0.298862
251.148987	727.795227	771.113586	720.142029	-17.667332
251.523071	722.222473	764.426331	713.528992	-20.598783
251.897125	719.770447	771.039307	716.798340	-5.797100
252.271164	710.705566	766.952637	713.231750	4.491228
252.645187	706.916077	769.330383	713.529114	10.595387
253.019165	703.126709	767.101318	709.070984	9.291615
253.393112	711.374268	776.091980	724.600159	20.436277
253.767044	715.980957	775.051758	730.247253	24.151182
254.140930	722.148132	772.376770	737.528809	30.621328
254.514801	718.878845	764.129211	730.990173	26.765150
254.888657	723.559875	768.958801	726.903564	7.365128
255.262466	722.296814	776.909241	723.857117	2.857047
255.636276	726.606384	776.537781	733.219238	13.243879
256.010010	723.782898	778.469543	739.163391	28.124769
256.383759	728.686768	769.627502	741.763977	31.941805
256.757446	720.216248	770.965027	733.665039	26.500719
257.131134	718.432922	764.872070	738.717712	43.680367
257.504791	709.591003	772.674011	737.231628	43.816277
257.878418	713.603271	777.503662	735.745544	34.651234
258.252014	725.714661	783.819397	728.983948	5.626542
258.625580	725.491760	782.853516	728.463867	5.181339
258.999115	723.485596	779.658508	726.234802	4.894186
259.372650	713.677673	777.206482	723.262695	15.087678
259.746124	715.238037	782.927734	718.210144	4.390782
260.119598	717.095520	791.695496	712.934570	-5.577682
260.493042	725.640320	802.766602	709.070862	-21.483543
260.866425	730.098450	797.342468	715.237976	-22.099323
261.239838	732.476257	796.525146	720.290527	-19.025669
261.613159	721.256531	789.986572	724.302917	4.432395
261.986511	722.742493	800.240295	718.730225	-5.177267
262.359802	714.792175	795.930847	719.844727	6.227057
262.733063	716.575439	788.351868	717.169861	0.828157
263.106293	708.625061	780.995911	719.398926	14.887023
263.479523	711.671387	783.968018	723.782898	16.752525
263.852692	704.984192	789.020569	732.773438	33.068115
264.225861	710.333984	791.918396	734.259521	29.326113
264.598969	716.129639	793.181458	736.191406	26.036722
264.972076	722.296875	792.215637	730.247131	11.370706
265.345154	729.132629	795.262024	736.414307	11.011256
265.718201	726.829285	792.958679	729.949890	4.718938
266.091217	731.584534	803.286682	744.290344	17.720264
266.464203	731.435974	801.875000	737.380188	8.438807
266.837158	730.395691	803.286804	742.507080	16.615728
267.210114	724.079895	792.958679	725.120300	1.510487
267.583038	712.934570	788.054626	723.039795	13.452100
267.955902	711.151367	792.066956	717.244141	7.529789
268.328766	718.135742	808.859375	714.866516	-3.603500
268.701569	716.129578	813.243225	708.996582	-7.344998
269.074371	711.522888	814.729309	710.779785	-0.720016
269.447144	708.402161	802.543701	716.426819	8.524035
269.819885	715.460938	807.596375	723.782898	9.032312
270.192596	723.337097	802.915222	719.696106	-4.575367
270.565277	723.262695	816.809814	726.457703	3.415399
270.937927	719.398926	818.147278	724.154297	4.815646
271.310577	717.615723	820.004883	730.024231	12.118967
271.683136	719.398926	820.970886	724.154297	4.681776
272.055725	724.154297	819.261902	728.389587	4.453156
272.428284	729.206848	829.812805	722.222412	-6.942368
272.800812	725.714661	824.463074	716.946960	-8.878826
273.173279	721.330811	831.670410	717.467102	-3.501652
273.545776	712.860291	826.989258	723.188293	9.049415
273.918152	711.448547	827.509460	729.058289	15.172844
274.290558	712.562988	822.308167	721.033630	7.718464
274.662964	713.231750	828.846863	717.169861	3.406224
275.035278	716.055359	826.394836	719.027527	2.693658
275.407593	712.488770	829.738464	727.275085	12.610963
275.779907	714.569275	833.082092	734.556702	16.865202
276.152161	708.847961	840.958191	733.665039	18.785130
276.524384	716.872620	842.147034	735.596924	14.946630
276.896606	717.244141	838.283386	731.361633	11.663567
277.268799	722.593994	847.273926	731.881836	7.449348
277.640930	717.615723	853.366699	725.045898	5.473387
278.013031	727.720886	857.750671	726.754944	-0.742862
278.385162	729.949951	852.177917	724.748779	-4.255304
278.757233	731.881836	851.211914	726.086182	-4.856826
279.129272	721.405090	852.475098	722.519714	0.850404
279.501282	723.857117	851.583496	726.309082	1.919702
279.873230	727.052063	845.713562	726.234802	-0.688733
280.245178	732.550537	854.184082	728.092346	-3.665264
280.617126	722.371094	863.546204	724.897400	1.789484
280.988983	714.866455	879.967102	721.256531	3.870412
281.360870	713.826233	889.254883	725.491760	6.649728
281.732697	711.077087	898.096924	719.250305	4.370241
282.104492	722.965515	902.852295	724.897400	1.073945
282.476288	723.782715	899.731628	721.033691	-1.562399
282.848053	736.488586	900.325989	727.126465	-5.714276
283.219757	731.213074	909.985413	725.640442	-3.117167
283.591461	733.070618	924.251465	722.519714	-5.518808
283.963135	728.835388	929.601257	722.742493	-3.034826
284.334747	730.767273	930.418640	726.606262	-2.084138
284.706360	724.600098	924.623047	731.807556	3.603316
285.077942	727.943665	929.007019	733.219238	2.623837
285.449524	722.519714	935.842773	725.640442	1.462911
285.821014	722.371094	932.573425	721.256531	-0.530233
286.192535	716.649719	941.638367	720.662109	1.783374
286.563995	718.210144	938.814880	721.850891	1.650349
286.935425	723.188293	948.251282	723.634216	0.198132
287.306824	726.383484	938.443359	724.377197	-0.946094
287.678223	722.222473	938.963440	729.429749	3.325294
288.049561	720.885010	944.610535	733.813660	5.778800
288.420898	717.615662	948.399902	738.271790	8.950407
288.792145	722.891113	953.675476	732.030334	3.960069
289.163452	722.965515	951.372070	725.417480	1.073509
289.534668	725.491760	963.632019	717.318542	-3.432102
289.905914	719.324707	972.845520	721.553711	0.879219
290.277039	727.943787	987.928955	731.287354	1.286061
290.648193	739.089172	995.210632	734.854004	-1.653578
291.019318	737.677429	1002.195068	733.590820	-1.544929
291.390381	725.194580	1004.424133	726.531982	0.478962
291.761475	713.157532	1006.430359	721.776611	2.938929
292.132507	716.278259	1011.631531	721.776611	1.861619
292.503510	713.900574	1015.198059	719.101746	1.726258
292.874481	718.284363	1024.337280	731.510254	4.321439
293.245422	723.188416	1017.872986	731.956116	2.975283
293.616364	727.720886	1024.634644	735.448425	2.602621
293.987213	723.708496	1019.953430	729.132629	1.830962
294.358093	723.114075	1037.043091	733.665039	3.360940
294.728943	720.810730	1046.182251	731.213074	3.197067
295.099731	717.095520	1072.188354	727.052063	2.803927
295.470490	709.219482	1087.717529	721.925293	3.356903
295.841248	709.442383	1092.250122	725.937683	4.309030
296.211975	710.482605	1101.314941	724.080078	3.479106
296.582642	720.959290	1111.420044	725.194580	1.084690
296.953308	722.148132	1133.710938	725.120300	0.722166
297.323883	723.188416	1133.413696	723.634216	0.108672
297.694519	718.358704	1148.274170	723.485596	1.192535
298.065063	714.494934	1153.698242	725.268860	2.453061
298.435608	717.764343	1157.710693	729.949890	2.769780
298.806122	718.061523	1144.782104	734.110840	3.761083
299.176575	726.309082	1126.503540	732.476257	1.541045
299.547028	723.262695	1113.277710	731.956055	2.228981
299.917450	715.089355	1100.274780	721.330872	1.620393
300.287872	709.219543	1100.274780	713.826233	1.178015
300.658234	713.454773	1107.704956	714.940735	0.376908
301.028564	720.439209	1107.184814	719.250305	-0.307412
301.398865	724.228577	1106.887573	725.417480	0.310695
301.769135	722.222473	1100.720459	728.835388	1.747147
302.139374	726.606384	1109.042358	737.008728	2.720022
302.509583	724.154358	1119.370483	736.637207	3.158487
302.879791	721.702332	1125.166138	735.076843	3.314922
303.249939	713.974854	1123.680054	728.315247	3.500174
303.620087	711.448547	1116.769897	729.652649	4.491276
303.990173	717.912903	1117.364258	728.166687	2.566967
304.360260	724.005676	1121.079468	733.293518	2.339072
304.730286	726.011902	1127.618164	728.686768	0.666042
305.100281	714.717834	1132.522095	725.268860	2.525351
305.470276	710.705566	1134.379517	718.358704	1.806374
305.840179	710.705566	1140.398071	728.241028	4.080933
306.210144	713.677551	1148.125610	734.556824	4.805931
306.579987	717.838562	1160.014038	740.129395	5.041173
306.949890	713.157532	1164.472168	739.386414	5.811662
307.319702	718.358704	1171.308105	733.367859	3.313649
307.689484	717.169861	1182.899292	731.287292	3.031252
308.059265	725.045959	1204.447144	724.377258	-0.139487
308.429016	722.593933	1220.348022	721.851013	-0.149254
308.798737	721.776672	1239.592285	724.228699	0.473533
309.168396	720.364929	1248.434204	730.024231	1.829173
309.538055	718.358704	1267.158569	738.346130	3.642025
309.907684	719.844727	1272.359741	733.590759	2.487902
310.277313	714.494934	1280.904419	729.801270	2.702344
310.646851	719.621887	1293.164551	734.705261	2.629861
311.016388	713.974854	1309.808350	748.748535	5.836141
311.385895	717.838562	1319.839233	752.537903	5.764004
311.755371	714.717834	1317.015747	747.708252	5.477425
312.124817	720.067627	1321.473877	740.203796	3.348181
312.494232	720.885010	1326.823730	735.671204	2.440213
312.863617	719.250305	1321.251099	731.956055	2.110587
313.232971	724.600098	1317.461670	728.983948	0.739439
313.602295	726.234802	1308.099487	723.039795	-0.549098
313.971619	724.154297	1312.483276	728.092346	0.669362
314.340820	721.627991	1308.025024	729.058350	1.267121
314.710083	721.850891	1326.154907	737.900391	2.655865
315.079285	722.222412	1347.479858	732.699158	1.675589
315.448486	725.566101	1369.696289	727.349304	0.276839
315.817596	716.649719	1372.817017	725.343201	1.324888
316.186707	720.439148	1360.408569	729.875671	1.474527
316.555786	706.841797	1348.445801	733.442139	4.145913
316.924866	712.042969	1333.139526	735.002441	3.696603
317.293884	709.962463	1328.978516	733.442078	3.793054
317.662872	716.575439	1323.182983	736.042725	3.209206
318.031830	714.569336	1328.532593	726.754883	1.984735
318.400757	719.101746	1335.071411	726.160461	1.145952
318.769684	719.027344	1350.303345	717.912903	-0.176538
319.138550	720.513428	1358.996704	724.971680	0.698257
319.507416	716.426819	1368.878906	721.776611	0.819952
319.876190	710.259705	1362.191650	734.185242	3.669944
320.244995	711.597168	1369.399048	731.510254	3.027216
320.613770	716.946960	1364.643677	733.442139	2.546744
320.982483	727.349304	1370.959473	724.748718	-0.404062
321.351166	723.782776	1366.798462	723.857117	0.011561
321.719818	719.473328	1366.872681	723.485535	0.619742
322.088440	714.123474	1370.513672	730.915833	2.558289
322.457062	716.426819	1381.287598	736.711426	3.050956
322.825623	717.244141	1389.237915	732.624817	2.288812
323.194183	714.643555	1404.692993	729.281250	2.121253
323.562653	708.922302	1416.358398	728.909668	2.825325
323.931183	708.773682	1445.559448	733.442139	3.348118
324.299591	714.569336	1478.178223	731.436035	2.208814
324.668060	718.581726	1511.020142	727.275085	1.097039
325.036407	712.414490	1551.589355	733.070618	2.461481
325.404755	708.625000	1563.255005	732.253235	2.764733
