Jaz Data File
++++++++++++++++++++++++++++++++++++
Date: Fri Jun 04 17:07:44 2021
User: jaz
Dark Spectrum Present: Yes
Reference Spectrum Present: Yes
Processed Spectrum Present: Yes
Spectrometers: JAZA3586
Integration Time (usec): 120000 (JAZA3586)
Spectra Averaged: 10 (JAZA3586)
Boxcar Smoothing: 1 (JAZA3586)
Correct for Electrical Dark: No (JAZA3586)
Strobe/Lamp Enabled: Yes (JAZA3586)
Correct for Detector Non-linearity: No (JAZA3586)
Correct for Stray Light: No (JAZA3586)
Number of Pixels in Processed Spectrum: 2048
>>>>>Begin Processed Spectral Data<<<<<
W	D	R	S	P
191.335022	0.000000	0.000000	0.000000	0.000000
191.713211	229.818314	229.892624	229.966919	199.979462
192.091385	460.082428	468.552979	455.401367	-55.262768
192.469528	686.408508	696.142273	685.516907	-9.159884
192.847641	692.724304	707.659180	694.581848	12.437626
193.225739	702.606506	714.197754	717.318420	126.922607
193.603790	719.547546	727.423584	730.767273	142.453949
193.981842	727.869446	730.915833	736.488464	282.925964
194.359863	736.340027	734.408020	737.974548	-84.602264
194.737854	738.791992	737.900208	744.736145	-666.545776
195.115829	739.163513	739.312012	747.039551	5303.781250
195.493774	740.203796	734.631042	742.581360	-42.664066
195.871704	741.615479	730.247131	742.284180	-5.882132
196.249603	741.912659	727.200745	737.974609	26.767756
196.627457	738.346191	728.166687	736.414307	18.978182
197.005310	736.934387	731.658875	739.312073	-45.070229
197.383133	741.169678	738.346130	739.832214	47.368195
197.760910	750.383118	746.445129	751.869202	-37.737137
198.138687	758.556458	749.268738	740.872498	190.401520
198.516449	765.095154	740.203674	741.541199	94.626579
198.894180	755.064270	727.052185	729.429871	91.511932
199.271866	748.451355	730.544373	732.699158	87.966789
199.649536	735.819824	735.076843	732.327637	470.023834
200.027191	733.144958	743.324524	735.076843	18.978067
200.404816	728.909668	743.547363	732.922058	27.411352
200.782410	730.544373	754.989929	740.723877	41.641533
201.159988	727.200684	768.513000	743.101563	38.489437
201.537537	725.566101	774.308594	745.107727	40.091560
201.915070	721.702332	775.051758	743.621643	41.086311
202.292557	726.606262	771.930969	745.999329	42.786964
202.670029	730.470032	773.194153	750.754700	47.478256
203.047485	734.259460	771.633789	743.250183	24.055878
203.424911	728.389587	768.215820	732.476257	10.261251
203.802292	722.296692	763.163269	729.504150	17.636560
204.179688	716.872742	763.014648	727.943848	23.993603
204.557037	725.640381	759.819641	730.767273	15.000009
204.934357	727.052063	759.522461	729.281250	6.865290
205.311661	731.658875	760.934143	731.138733	-1.776727
205.688934	723.188416	759.225159	722.965515	-0.618536
206.066177	728.389648	764.054871	715.015076	-37.500320
206.443390	721.851013	758.184998	710.185364	-32.106716
206.820587	725.045959	758.259277	716.278137	-26.398514
207.197769	728.761169	754.915710	718.878845	-37.784355
207.574921	732.773438	757.962097	717.021240	-62.536861
207.952042	733.219299	761.454285	714.643555	-65.789818
208.329147	719.101746	760.488342	720.364807	3.051861
208.706223	758.482178	803.212402	772.302429	30.896896
209.083267	762.717468	802.915222	770.147644	18.484056
209.460297	767.547119	795.782166	770.667786	11.052458
209.837280	729.132629	745.702148	722.445374	-40.358780
210.214264	718.061523	745.553528	724.674500	24.054180
210.591217	714.792236	749.045715	724.674500	28.850393
210.968124	715.981018	758.630798	730.024231	32.926811
211.345016	722.519714	766.432556	737.454590	34.010269
211.721893	724.971680	778.469666	731.138855	11.527864
212.098724	721.627991	778.469543	729.355530	13.594877
212.475555	712.860168	778.692566	726.754883	21.106195
212.852356	708.922180	769.850403	729.949951	34.512367
213.229126	712.117188	770.965027	731.064453	32.197044
213.605865	719.621826	762.048645	727.349304	18.213663
213.982590	725.120300	768.364441	722.742493	-5.498566
214.359283	720.513489	757.590515	720.736389	0.601182
214.735931	718.284424	757.218994	726.160461	20.228907
215.112579	707.733459	751.274841	731.287415	54.095562
215.489197	701.343445	748.302734	724.971680	50.316422
215.865799	704.241211	744.216003	717.467041	33.085426
216.242355	718.284424	742.804260	719.993347	6.969554
216.618896	730.767273	749.417297	722.148132	-46.215172
216.995407	727.423645	758.184998	718.581543	-28.744192
217.371902	721.702332	761.602844	711.002686	-26.815811
217.748367	724.005676	764.352051	710.556885	-33.333332
218.124802	723.039734	757.887695	709.219421	-39.658882
218.501236	722.593933	754.841309	713.008850	-29.723606
218.877609	714.197754	751.274841	714.940735	2.003882
219.253983	724.154297	754.767029	725.491699	4.368778
219.630295	728.835449	757.590576	726.606262	-7.752312
220.006592	728.761047	758.927979	730.618652	6.157753
220.382889	718.284363	751.126221	727.200745	27.149445
220.759140	717.169922	746.370850	731.361633	48.600208
221.135391	713.306152	746.965271	731.064453	52.759258
221.511581	715.906738	745.181946	729.058289	44.923851
221.887772	711.225586	747.931152	723.411316	33.198589
222.263931	717.764343	757.739197	725.640320	19.702328
222.640060	717.541321	772.599670	728.018066	19.028440
223.016159	724.748718	769.553223	727.497864	6.135869
223.392212	717.764343	758.556458	726.011902	20.218512
223.768265	719.324646	756.253113	730.767273	30.985926
224.144302	708.699402	757.293396	728.389587	40.519791
224.520294	707.807800	757.293396	727.572266	39.939835
224.896286	717.021301	761.528564	726.680664	21.702890
225.272217	722.965515	765.912415	730.395752	17.300985
225.648148	734.853943	771.336609	728.463867	-17.515375
226.024048	723.634094	767.695801	718.061523	-12.647197
226.399902	719.176025	770.370605	716.575500	-5.079688
226.775772	702.235046	760.414063	716.129639	23.882481
227.151581	703.646790	756.401672	724.748718	39.999954
227.527374	703.721130	751.274841	728.389587	51.874935
227.903137	715.089355	760.636902	725.640381	23.164860
228.278870	718.433044	765.020813	723.188293	10.207076
228.654572	714.717957	763.609070	711.820007	-5.927354
229.030273	711.002747	763.609070	710.036804	-1.836172
229.405930	707.436279	760.636963	712.414490	9.357418
229.781555	708.402161	757.070374	721.405090	26.717501
230.157181	714.866516	755.807312	724.525879	23.593491
230.532761	711.597168	753.280945	724.377258	30.659626
230.908325	716.203918	762.568848	720.513428	9.294761
231.283859	715.089417	760.339783	725.491699	22.988283
231.659332	719.547546	759.671082	721.553711	4.999969
232.034821	715.535217	758.407898	719.175964	8.491998
232.410263	709.516663	755.732971	718.730164	19.935606
232.785690	702.978027	755.287109	719.027405	30.681818
233.161087	706.098816	748.377014	724.377258	43.233730
233.536469	708.773682	755.212891	728.686829	42.880032
233.911804	713.900574	747.411072	726.457703	37.472225
234.287140	713.751953	754.098328	733.665100	49.355480
234.662430	707.584778	751.943542	726.680664	43.048733
235.037704	703.795410	758.928040	727.497864	42.991699
235.412933	706.321594	760.339783	715.237976	16.506258
235.788162	715.906738	763.683411	712.785950	-6.532034
236.163345	724.748779	773.416992	720.513489	-8.702375
236.538513	728.018066	774.977356	724.377258	-7.753116
236.913635	730.693054	774.531555	718.135742	-28.644484
237.288742	733.739441	767.844238	726.086182	-22.440418
237.663834	732.104736	759.373779	724.971680	-26.158075
238.038879	729.949951	753.058105	737.083008	30.868137
238.413910	719.176025	747.039551	720.810730	5.866826
238.788910	711.522888	746.593750	726.234802	41.949108
239.163879	712.191589	752.017822	726.086182	34.888042
239.538834	713.603333	758.259277	733.962341	45.590813
239.913757	722.445374	761.157043	725.789001	8.637260
240.288651	721.330872	759.150940	722.593933	3.339659
240.663528	720.290527	765.243713	722.445374	4.793534
241.038361	713.900574	773.491394	727.423645	22.693213
241.413177	710.111084	772.005310	734.185242	38.895645
241.787979	708.402161	763.980652	730.841553	40.374237
242.162735	710.556946	760.339661	732.624817	44.328381
242.537476	710.854187	761.602844	722.593994	23.133238
242.912170	719.993408	775.125977	725.640442	10.242646
243.286865	717.838623	773.342712	726.309143	15.261074
243.661514	715.980957	770.965027	730.247253	25.946236
244.036148	715.609558	767.472717	725.417480	18.911156
244.410751	718.878723	774.457275	729.727051	19.518909
244.785339	723.931396	775.125977	723.931396	0.000000
245.159882	714.346375	765.838135	724.302979	19.336306
245.534378	718.581604	760.488342	719.919128	3.191669
245.908890	720.290527	768.661621	718.804504	-3.072130
246.283356	720.290527	769.627625	723.411316	6.325440
246.657791	720.587830	765.243713	715.683899	-10.981601
247.032196	718.061523	765.540955	722.222473	8.763689
247.406586	721.776672	764.797913	715.312317	-15.025963
247.780960	714.494934	769.627625	717.689941	5.795123
248.155289	714.494934	767.175598	718.804504	8.180554
248.529602	715.312317	774.011414	721.330811	10.253128
248.903870	719.770508	769.330383	730.767273	22.188847
249.278122	715.832336	759.671082	727.126465	25.762892
249.652344	715.535156	757.961975	723.634216	19.089481
250.026550	711.820068	763.906250	715.535217	7.132696
250.400711	717.764343	776.091980	721.107910	5.732389
250.774857	720.290588	769.999084	727.720886	14.947742
251.148987	727.795227	771.113586	724.302917	-8.061962
251.523071	722.222473	764.426331	719.473206	-6.514256
251.897125	719.770447	771.039307	717.392761	-4.637680
252.271164	710.705566	766.952637	721.702332	19.550823
252.645187	706.916077	769.330383	729.875549	36.785591
253.019165	703.126709	767.101318	729.578430	41.347218
253.393112	711.374268	776.091980	733.442200	34.098751
253.767044	715.980957	775.051758	723.411316	12.578734
254.140930	722.148132	772.376770	733.888000	23.372858
254.514801	718.878845	764.129211	734.333740	34.154186
254.888657	723.559875	768.958801	735.522644	26.350334
255.262466	722.296814	776.909241	728.463867	11.292399
255.636276	726.606384	776.537781	733.962219	14.731883
256.010010	723.782898	778.469543	736.042786	22.418430
256.383759	728.686768	769.627502	734.853943	15.063665
256.757446	720.216248	770.965027	721.553772	2.635580
257.131134	718.432922	764.872070	717.392761	-2.239837
257.504791	709.591003	772.674011	711.522766	3.062255
257.878418	713.603271	777.503662	713.380371	-0.348825
258.252014	725.714661	783.819397	719.993347	-9.846553
258.625580	725.491760	782.853516	730.321472	8.419743
258.999115	723.485596	779.658508	724.302917	1.455011
259.372650	713.677673	777.206482	718.581604	7.719223
259.746124	715.238037	782.927734	709.368103	-8.671828
260.119598	717.095520	791.695496	722.742493	7.569671
260.493042	725.640320	802.766602	719.398926	-8.092435
260.866425	730.098450	797.342468	716.872620	-19.668411
261.239838	732.476257	796.525146	711.002747	-33.526749
261.613159	721.256531	789.986572	716.872620	-6.378450
261.986511	722.742493	800.240295	720.364929	-3.067911
262.359802	714.792175	795.930847	724.748718	12.271020
262.733063	716.575439	788.351868	722.742615	8.592201
263.106293	708.625061	780.995911	725.714661	23.613928
263.479523	711.671387	783.968018	729.429871	24.563362
263.852692	704.984192	789.020569	734.333801	34.924885
264.225861	710.333984	791.918396	737.305908	33.060143
264.598969	716.129639	793.181458	733.293640	22.275921
264.972076	722.296875	792.215637	729.355530	10.095509
265.345154	729.132629	795.262024	730.841614	2.584304
265.718201	726.829285	792.958679	725.268860	-2.359654
266.091217	731.584534	803.286682	736.934387	7.461218
266.464203	731.435974	801.875000	736.637207	7.384022
266.837158	730.395691	803.286804	737.528809	9.785991
267.210114	724.079895	792.958679	721.776672	-3.343878
267.583038	712.934570	788.054626	716.872742	5.242503
267.955902	711.151367	792.066956	717.838623	8.264484
268.328766	718.135742	808.859375	730.470032	13.595454
268.701569	716.129578	813.243225	731.584656	15.914425
269.074371	711.522888	814.729309	736.934387	24.622013
269.447144	708.402161	802.543701	728.315247	21.152285
269.819885	715.460938	807.596375	728.909668	14.596697
270.192596	723.337097	802.915222	729.132629	7.282821
270.565277	723.262695	816.809814	733.293640	10.722879
270.937927	719.398926	818.147278	735.002502	15.801354
271.310577	717.615723	820.004883	732.030457	14.078379
271.683136	719.398926	820.970886	729.429871	9.875703
272.055725	724.154297	819.261902	726.829285	2.812591
272.428284	729.206848	829.812805	727.869446	-1.329347
272.800812	725.714661	824.463074	736.414246	10.835196
273.173279	721.330811	831.670410	741.095398	17.912506
273.545776	712.860291	826.989258	736.934387	21.093765
273.918152	711.448547	827.509460	729.355469	15.428899
274.290558	712.562988	822.308167	722.519714	9.072586
274.662964	713.231750	828.846863	720.662109	6.426806
275.035278	716.055359	826.394836	718.953125	2.626228
275.407593	712.488770	829.738464	718.358704	5.006353
275.779907	714.569275	833.082092	724.600098	8.463914
276.152161	708.847961	840.958191	727.720886	14.285741
276.524384	716.872620	842.147034	734.556641	14.116227
276.896606	717.244141	838.283386	725.937683	7.182416
277.268799	722.593994	847.273926	726.754883	3.337256
277.640930	717.615723	853.366699	722.445313	3.557683
278.013031	727.720886	857.750671	725.640320	-1.600069
278.385162	729.949951	852.177917	721.107910	-7.234057
278.757233	731.881836	851.211914	722.073792	-8.219255
279.129272	721.405090	852.475098	722.519592	0.850310
279.501282	723.857117	851.583496	724.377258	0.407231
279.873230	727.052063	845.713562	723.411316	-3.068179
280.245178	732.550537	854.184082	723.931396	-7.086154
280.617126	722.371094	863.546204	716.501160	-4.157910
280.988983	714.866455	879.967102	716.575439	1.035117
281.360870	713.826233	889.254883	719.621887	3.303710
281.732697	711.077087	898.096924	725.045898	7.469160
282.104492	722.965515	902.852295	727.646545	2.602209
282.476288	723.782715	899.731628	723.485535	-0.168901
282.848053	736.488586	900.325989	718.655945	-10.884354
283.219757	731.213074	909.985413	715.832336	-8.603533
283.591461	733.070618	924.251465	722.742493	-5.402280
283.963135	728.835388	929.601257	732.401917	1.776461
284.334747	730.767273	930.418640	737.974609	3.609961
284.706360	724.600098	924.623047	733.739441	4.569147
285.077942	727.943665	929.007019	735.596985	3.806422
285.449524	722.519714	935.842773	733.367859	5.085313
285.821014	722.371094	932.573425	730.915833	4.065007
286.192535	716.649719	941.638367	726.829163	4.524426
286.563995	718.210144	938.814880	723.188293	2.256592
286.935425	723.188293	948.251282	724.005676	0.363180
287.306824	726.383484	938.443359	723.559875	-1.331515
287.678223	722.222473	938.963440	729.429749	3.325294
288.049561	720.885010	944.610535	732.327576	5.114555
288.420898	717.615662	948.399902	730.247070	5.473254
288.792145	722.891113	953.675476	724.823059	0.837122
289.163452	722.965515	951.372070	722.445313	-0.227753
289.534668	725.491760	963.632019	721.033630	-1.872061
289.905914	719.324707	972.845520	718.432922	-0.351760
290.277039	727.943787	987.928955	719.844727	-3.115201
290.648193	739.089172	995.210632	726.531982	-4.902826
291.019318	737.677429	1002.195068	728.315247	-3.539341
291.390381	725.194580	1004.424133	722.891296	-0.824871
291.761475	713.157532	1006.430359	721.182190	2.736243
292.132507	716.278259	1011.631531	722.593933	2.138346
292.503510	713.900574	1015.198059	730.767273	5.598022
292.874481	718.284363	1024.337280	738.048889	6.457879
293.245422	723.188416	1017.872986	739.089172	5.395856
293.616364	727.720886	1024.634644	734.185242	2.177183
293.987213	723.708496	1019.953430	727.572266	1.304248
294.358093	723.114075	1037.043091	725.937683	0.899442
294.728943	720.810730	1046.182251	721.999512	0.365361
295.099731	717.095520	1072.188354	719.547546	0.690531
295.470490	709.219482	1087.717529	719.250305	2.650165
295.841248	709.442383	1092.250122	726.457703	4.444873
296.211975	710.482605	1101.314941	723.708496	3.384032
296.582642	720.959290	1111.420044	718.284363	-0.685069
296.953308	722.148132	1133.710938	720.439148	-0.415243
297.323883	723.188416	1133.413696	730.618652	1.811258
297.694519	718.358704	1148.274170	736.265625	4.165219
298.065063	714.494934	1153.698242	736.637146	5.041449
298.435608	717.764343	1157.710693	729.504150	2.668463
298.806122	718.061523	1144.782104	723.411316	1.253699
299.176575	726.309082	1126.503540	723.337097	-0.742635
299.547028	723.262695	1113.277710	721.330872	-0.495320
299.917450	715.089355	1100.274780	723.411316	2.160508
300.287872	709.219543	1100.274780	717.838562	2.204041
300.658234	713.454773	1107.704956	726.680664	3.354695
301.028564	720.439209	1107.184814	726.457703	1.556189
301.398865	724.228577	1106.887573	731.807434	1.980577
301.769135	722.222473	1100.720459	734.779602	3.317621
302.139374	726.606384	1109.042358	742.952942	4.274325
302.509583	724.154358	1119.370483	740.129395	4.042101
302.879791	721.702332	1125.166138	726.160461	1.104964
303.249939	713.974854	1123.680054	723.114075	2.230682
303.620087	711.448547	1116.769897	719.027405	1.869839
303.990173	717.912903	1117.364258	720.810730	0.725452
304.360260	724.005676	1121.079468	725.714661	0.430395
304.730286	726.011902	1127.618164	734.631042	2.146167
305.100281	714.717834	1132.522095	730.618652	3.805806
305.470276	710.705566	1134.379517	726.309082	3.682907
305.840179	710.705566	1140.398071	724.154297	3.129850
306.210144	713.677551	1148.125610	733.293640	4.515175
306.579987	717.838562	1160.014038	735.076843	3.898516
306.949890	713.157532	1164.472168	730.470032	3.836016
307.319702	718.358704	1171.308105	728.835388	2.312992
307.689484	717.169861	1182.899292	720.885010	0.797705
308.059265	725.045959	1204.447144	727.126465	0.433980
308.429016	722.593933	1220.348022	725.343262	0.552347
308.798737	721.776672	1239.592285	727.200745	1.047491
309.168396	720.364929	1248.434204	720.810730	0.084421
309.538055	718.358704	1267.158569	717.764343	-0.108302
309.907684	719.844727	1272.359741	721.776611	0.349653
310.277313	714.494934	1280.904419	722.593933	1.429884
310.646851	719.621887	1293.164551	726.011902	1.114131
311.016388	713.974854	1309.808350	728.983948	2.519008
311.385895	717.838562	1319.839233	732.030457	2.357455
311.755371	714.717834	1317.015747	732.401917	2.936102
312.124817	720.067627	1321.473877	722.445313	0.395354
312.494232	720.885010	1326.823730	716.946960	-0.649909
312.863617	719.250305	1321.251099	718.432922	-0.135778
313.232971	724.600098	1317.461670	725.120300	0.087744
313.602295	726.234802	1308.099487	723.857117	-0.408632
313.971619	724.154297	1312.483276	720.216309	-0.669351
314.340820	721.627991	1308.025024	722.519714	0.152068
314.710083	721.850891	1326.154907	721.553711	-0.049177
315.079285	722.222412	1347.479858	724.674500	0.392172
315.448486	725.566101	1369.696289	725.640381	0.011532
315.817596	716.649719	1372.817017	732.847717	2.468577
316.186707	720.439148	1360.408569	731.881836	1.788005
316.555786	706.841797	1348.445801	732.401855	3.983775
316.924866	712.042969	1333.139526	731.361633	3.110412
317.293884	709.962463	1328.978516	735.819824	4.177171
317.662872	716.575439	1323.182983	731.510254	2.462023
318.031830	714.569336	1328.532593	731.658875	2.783479
318.400757	719.101746	1335.071411	731.435974	2.002409
318.769684	719.027344	1350.303345	734.928223	2.518847
319.138550	720.513428	1358.996704	729.578430	1.419771
319.507416	716.426819	1368.878906	724.525879	1.241326
319.876190	710.259705	1362.191650	720.439148	1.561427
320.244995	711.597168	1369.399048	733.367859	3.309612
320.613770	716.946960	1364.643677	734.631042	2.730303
320.982483	727.349304	1370.959473	732.030457	0.727327
321.351166	723.782776	1366.798462	723.559875	-0.034665
321.719818	719.473328	1366.872681	723.634094	0.642689
322.088440	714.123474	1370.513672	725.714661	1.765899
322.457062	716.426819	1381.287598	726.829285	1.564608
322.825623	717.244141	1389.237915	725.566101	1.238398
323.194183	714.643555	1404.692993	725.566101	1.582864
323.562653	708.922302	1416.358398	729.504089	2.909349
323.931183	708.773682	1445.559448	729.206848	2.773285
324.299591	714.569336	1478.178223	733.367859	2.461800
324.668060	718.581726	1511.020142	728.538147	1.256428
325.036407	712.414490	1551.589355	729.801270	2.071890
325.404755	708.625000	1563.255005	726.457703	2.086599
