Jaz Data File
++++++++++++++++++++++++++++++++++++
Date: Fri Jun 04 16:52:48 2021
User: jaz
Dark Spectrum Present: Yes
Reference Spectrum Present: Yes
Processed Spectrum Present: Yes
Spectrometers: JAZA3586
Integration Time (usec): 24600 (JAZA3586)
Spectra Averaged: 10 (JAZA3586)
Boxcar Smoothing: 1 (JAZA3586)
Correct for Electrical Dark: No (JAZA3586)
Strobe/Lamp Enabled: Yes (JAZA3586)
Correct for Detector Non-linearity: No (JAZA3586)
Correct for Stray Light: No (JAZA3586)
Number of Pixels in Processed Spectrum: 2048
>>>>>Begin Processed Spectral Data<<<<<
W	D	R	S	P
191.335022	0.000000	0.000000	0.000000	0.000000
191.713211	227.812149	233.756348	236.654175	148.750504
192.091385	455.401367	470.633423	471.153564	103.414780
192.469528	695.027649	713.083191	709.145203	78.189590
192.847641	705.281433	715.386536	713.306152	79.412544
193.225739	723.634216	724.748718	721.256531	-213.340637
193.603790	731.584534	727.275085	730.470032	25.861824
193.981842	739.757813	742.507080	732.996338	-245.937302
194.359863	740.649475	740.798096	737.528809	-2099.753662
194.737854	744.141785	746.890930	739.089172	-183.788467
195.115829	742.284241	741.243958	741.764160	49.994133
195.493774	742.655762	746.445129	747.039551	115.686562
195.871704	739.609314	740.055176	747.708313	1816.481812
196.249603	745.256348	746.222229	747.262451	207.696686
196.627457	745.702148	748.674133	744.513245	-40.003696
197.005310	744.439026	752.835144	740.946716	-41.594337
197.383133	741.689758	753.875427	741.541199	-1.219133
197.760910	735.076843	761.602844	749.714539	55.182442
198.138687	738.049011	765.838196	749.714539	41.978661
198.516449	736.191345	752.983826	754.395508	108.406631
198.894180	749.788757	743.398743	747.188171	40.697651
199.271866	750.085999	743.472961	745.925049	62.920406
199.649536	751.274902	751.497742	733.739441	-7869.104492
200.027191	749.342957	753.132385	724.228699	-662.745239
200.404816	752.760925	750.457520	727.275085	1106.441650
200.782410	750.308899	760.265381	735.448425	-149.254257
201.159988	742.952881	773.119812	745.776428	9.359743
201.537537	735.671204	777.206482	747.708252	28.980301
201.915070	735.151184	784.116699	745.627869	21.396048
202.292557	731.064453	777.578064	742.655762	24.920252
202.670029	735.522644	780.772949	743.547363	17.734066
203.047485	736.042786	774.234375	746.445129	27.237263
203.424911	739.832214	775.571777	748.599915	24.532198
203.802292	732.030457	776.686340	744.661865	28.286102
204.179688	728.686768	769.924805	744.810486	39.099140
204.557037	725.566101	758.184998	735.894226	31.663012
204.934357	724.451477	759.225281	736.785706	35.469887
205.311661	722.816895	760.116882	737.677429	39.840588
205.688934	724.377258	763.163269	740.946716	42.720192
206.066177	725.120300	758.036377	731.733215	20.090229
206.443390	730.544434	759.002258	728.240967	-8.094317
206.820587	728.761169	761.825745	728.018066	-2.247430
207.197769	722.965515	764.203430	734.928223	29.009003
207.574921	721.553711	757.813477	733.367859	32.581974
207.952042	718.210144	756.847473	729.132568	28.269098
208.329147	721.330811	761.602844	728.835388	18.634712
208.706223	727.126465	778.543884	736.785828	18.786167
209.083267	733.813721	777.875183	746.668030	29.173588
209.460297	745.404968	764.426453	743.250183	-11.328165
209.837280	734.853943	752.686523	736.117004	7.082887
210.214264	733.219238	755.510071	731.956055	-5.666830
210.591217	719.547546	763.460449	739.757874	46.023666
210.968124	720.513489	763.831970	734.556641	32.418385
211.345016	714.123474	763.906250	734.779602	41.492519
211.721893	713.677551	762.123047	725.937561	25.306810
212.098724	713.528992	764.723633	732.922058	37.881046
212.475555	717.764221	758.482239	734.036621	39.963634
212.852356	718.507324	753.875427	745.553528	76.470612
213.229126	714.420593	755.435730	752.686523	93.297096
213.605865	713.900574	759.076599	748.897156	77.467155
213.982590	721.553711	764.352051	737.157288	36.458370
214.359283	731.733215	758.630676	723.559875	-30.387032
214.735931	737.900330	759.002258	724.674377	-62.676510
215.112579	735.299744	759.448059	729.429871	-24.307589
215.489197	728.909668	757.664856	729.132629	0.775378
215.865799	715.906738	747.559631	730.618652	46.478893
216.242355	709.516663	740.129395	731.435974	71.601944
216.618896	705.950134	738.866211	731.584656	77.878426
216.995407	700.154541	745.776367	726.160461	57.003242
217.371902	698.594238	745.479187	722.816895	51.664036
217.748367	703.200989	746.445129	725.268860	51.030891
218.124802	713.008850	748.302734	731.733154	53.052547
218.501236	716.426819	754.915588	728.092346	30.308912
218.877609	716.724060	761.825745	727.349304	23.558420
219.253983	721.553711	768.141541	719.919128	-3.508604
219.630295	725.863220	773.416992	722.445313	-7.187459
220.006592	727.423584	768.810242	726.086182	-3.231482
220.382889	724.897278	761.231445	731.956055	19.427380
220.759140	723.634094	762.048767	733.367859	25.338663
221.135391	721.999512	764.946533	737.677429	36.505249
221.511581	719.250305	757.962097	737.751770	47.792839
221.887772	714.792175	749.342957	740.203674	73.548264
222.263931	707.287598	745.404846	735.968506	75.243912
222.640060	707.436218	755.881592	738.346191	63.803768
223.016159	711.968689	757.219055	734.482422	49.753704
223.392212	718.953125	762.866028	737.454590	42.132183
223.768265	726.829163	756.030212	736.562927	33.333611
224.144302	725.714661	758.853699	732.401917	20.179390
224.520294	732.104675	760.191162	725.863281	-22.222054
224.896286	724.080078	766.061035	717.912903	-14.690412
225.272217	725.417480	767.101318	723.336975	-4.991156
225.648148	720.513489	765.020813	718.655945	-4.173569
226.024048	723.931396	771.633789	721.107910	-5.918962
226.399902	724.005676	766.358215	720.364929	-8.596290
226.775772	721.033630	769.033203	729.429871	17.492323
227.151581	722.965515	763.534729	736.637207	33.699673
227.527374	724.674500	762.717468	738.569092	36.523418
227.903137	724.302979	759.745361	739.980774	44.234596
228.278870	721.776672	766.135437	737.603088	35.678215
228.654572	716.946960	772.153992	739.906494	41.588062
229.030273	719.027405	773.119812	737.751709	34.615402
229.405930	718.730164	768.215820	730.915833	24.624649
229.781555	712.637390	773.045471	728.984070	27.060419
230.157181	708.699402	778.469666	726.383362	25.345984
230.532761	705.429993	778.618164	733.590820	38.477295
230.908325	713.900574	770.073425	739.980774	46.428478
231.283859	718.284424	765.763855	737.825989	41.157959
231.659332	720.885010	767.398499	732.179016	24.281141
232.034821	718.432922	766.283997	727.869446	19.720610
232.410263	717.095520	760.042664	735.225403	42.214409
232.785690	724.377197	762.791809	740.426575	41.779358
233.161087	725.789001	770.965088	741.689758	35.197289
233.536469	723.411316	775.125977	735.076843	22.557486
233.911804	717.318420	764.054871	734.110901	35.930157
234.287140	717.764343	755.658691	725.417480	20.195986
234.662430	718.655945	761.602844	727.795166	21.280281
235.037704	714.346375	766.729797	726.531982	23.262337
235.412933	710.779785	777.206543	729.801270	28.635275
235.788162	711.299988	767.101318	729.355469	32.356720
236.163345	718.581726	767.621399	733.442200	30.302963
236.538513	722.371094	756.773193	733.590820	32.613495
236.913635	728.463867	759.448059	725.937561	-8.153532
237.288742	724.674500	762.717468	720.290527	-11.523738
237.663834	728.612549	767.844299	717.912903	-27.272924
238.038879	728.389648	769.627625	725.640381	-6.666834
238.413910	733.219238	771.633789	727.200684	-15.667382
238.788910	730.247070	770.370605	733.442139	7.963078
239.163879	721.925232	776.834961	730.172852	15.020325
239.538834	719.919006	779.658508	730.767273	18.159285
239.913757	715.386536	777.578064	734.853943	31.302345
240.288651	724.005676	777.503662	737.157288	24.583376
240.663528	716.946960	767.472839	732.996399	31.764788
241.038361	717.318420	772.674011	726.829285	17.181398
241.413177	712.117188	772.674011	736.637207	40.490929
241.787979	715.460876	777.652344	742.358398	43.249538
242.162735	724.748718	775.868958	746.519348	42.587105
242.537476	723.485596	767.324219	740.649597	39.152695
242.912170	726.903564	772.674011	738.717712	25.811739
243.286865	717.615723	778.618225	739.906555	36.540848
243.661514	722.222473	795.039063	732.030457	13.469436
244.036148	727.275085	798.308411	731.956116	6.589907
244.410751	724.971680	802.320801	727.349365	3.073966
244.785339	716.798340	791.323975	735.819885	25.523493
245.159882	710.705505	785.676941	738.494812	37.066525
245.534378	718.433044	780.624329	737.528809	30.704887
245.908890	725.417480	791.769836	730.470032	7.614728
246.283356	724.748718	791.769836	725.120300	0.554425
246.657791	712.860291	796.227966	725.640381	15.329791
247.032196	712.042969	794.518982	733.813660	26.396391
247.406586	710.556946	803.955383	735.448425	26.650852
247.780960	717.987244	811.088562	735.225403	18.515484
248.155289	720.810730	816.661194	735.002625	14.806287
248.529602	720.885071	813.020447	734.631042	14.919320
248.903870	724.600159	798.605652	733.590820	12.148641
249.278122	727.572205	786.494324	727.052063	-0.882761
249.652344	734.185120	787.831787	723.708496	-19.528936
250.026550	732.624756	794.890442	720.662048	-19.212360
250.400711	728.463867	803.435364	721.405090	-9.415280
250.774857	722.668274	797.788330	729.949890	9.693305
251.148987	726.754883	800.240295	728.761047	2.730017
251.523071	720.513489	798.382813	721.702332	1.526715
251.897125	717.541321	803.732605	720.513489	3.448339
252.271164	715.460938	803.658203	724.748718	10.530690
252.645187	718.358704	800.834717	737.603088	23.333311
253.019165	718.878845	801.800598	739.386414	24.731228
253.393112	715.386536	806.184509	744.661926	32.242340
253.767044	712.265869	811.014160	733.516418	21.519917
254.140930	713.231750	811.905762	726.754944	13.704919
254.514801	708.699402	804.475586	722.148132	14.041832
254.888657	707.436218	806.481750	729.504089	22.280531
255.262466	707.584778	808.190674	727.275085	19.571724
255.636276	714.569336	814.209167	729.206970	14.690545
256.010010	725.045959	819.707520	732.699158	8.084801
256.383759	726.977783	818.147278	739.832214	14.099487
256.757446	725.268860	815.695251	741.912659	18.405909
257.131134	726.457703	807.967834	743.250183	20.601709
257.504791	732.922058	807.744873	739.014893	8.143017
257.878418	729.727051	818.221619	732.922058	3.610399
258.252014	721.033630	830.630127	731.881836	9.898314
258.625580	713.083191	857.527771	737.825989	17.129614
258.999115	723.336975	870.010559	737.380127	9.574425
259.372650	727.572266	890.369446	735.968445	5.157447
259.746124	730.915833	907.979309	736.265686	3.021433
260.119598	730.172852	925.589050	738.717712	4.372647
260.493042	724.674377	937.700378	738.940613	6.696946
260.866425	719.547546	929.527039	730.172852	5.060163
261.239838	716.798340	920.462097	729.281250	6.129176
261.613159	716.575439	903.892578	726.531982	5.315340
261.986511	723.782776	898.617004	735.151062	6.502323
262.359802	720.587830	898.171204	735.076843	8.158992
262.733063	726.457703	888.586243	726.160461	-0.183337
263.106293	723.336975	890.815369	710.408264	-7.719629
263.479523	724.080078	880.413025	713.008850	-7.081827
263.852692	720.216309	882.121887	728.166687	4.910503
264.225861	717.021301	872.165344	741.689758	15.900357
264.598969	716.798340	875.731934	736.711487	12.529224
264.972076	717.318420	881.378906	722.519714	3.170352
265.345154	720.884949	885.539795	713.826355	-4.286903
265.718201	720.290527	884.425293	712.711731	-4.617423
266.091217	722.296692	894.679016	725.789001	2.025909
266.464203	723.782898	904.189880	731.733215	4.406879
266.837158	725.640381	917.192871	739.460693	7.214896
267.210114	720.662109	921.502380	737.900330	8.583050
267.583038	718.730164	932.944885	735.002502	7.596275
267.955902	725.789001	940.672424	733.516418	3.596097
268.328766	732.030457	944.313293	734.408142	1.120055
268.701569	735.448303	944.536133	737.008728	0.746301
269.074371	728.389587	953.898254	743.844543	6.853375
269.447144	730.098450	965.192383	743.844543	5.847064
269.819885	727.126465	967.793030	736.191406	3.766598
270.192596	719.844727	974.926086	725.343262	2.155601
270.565277	716.501160	986.888855	734.185242	6.540269
270.937927	712.488770	1007.470642	742.804260	10.277069
271.310577	719.919128	1027.829590	747.708313	9.025086
271.683136	716.129639	1046.999634	737.974609	6.602282
272.055725	719.324707	1070.330688	739.906494	5.863657
272.428284	714.866455	1080.287476	735.448303	5.632366
272.800812	714.272034	1081.104614	732.401855	4.942261
273.173279	706.841797	1075.829224	728.240967	5.799431
273.545776	706.990417	1074.714478	731.510254	6.667999
273.918152	706.544617	1070.925049	727.275085	5.689238
274.290558	719.324646	1062.974609	728.835449	2.767585
274.662964	722.668274	1060.076904	733.813660	3.303231
275.035278	724.674500	1062.231812	735.745605	3.279771
275.407593	720.736389	1069.587524	737.825989	4.898823
275.779907	722.519714	1082.070557	731.733154	2.562486
276.152161	725.714661	1096.633911	734.408142	2.343767
276.524384	719.547546	1100.348999	734.333801	3.882930
276.896606	716.278259	1099.308716	731.213074	3.899119
277.268799	713.008850	1101.612183	733.813721	5.353755
277.640930	718.730225	1120.262085	730.544434	2.942284
278.013031	721.405090	1126.280640	736.785828	3.798880
278.385162	727.423645	1124.051636	739.757874	3.109773
278.757233	720.290527	1112.088867	740.500916	5.158365
279.129272	720.885010	1121.451050	735.745544	3.709884
279.501282	714.940735	1126.503540	727.200684	2.978877
279.873230	721.405090	1142.181396	725.194519	0.900580
280.245178	721.627991	1153.772705	726.309082	1.083223
280.617126	732.922058	1182.527832	736.265686	0.743680
280.988983	735.819824	1211.357300	742.581360	1.421872
281.360870	737.083008	1240.558228	742.804382	1.136377
281.732697	730.024231	1264.335083	742.730042	2.377981
282.104492	731.881836	1286.031372	747.262451	2.775535
282.476288	725.120300	1307.802124	748.971436	4.093338
282.848053	727.572266	1337.597534	743.250183	2.570044
283.219757	718.358704	1344.433350	736.785828	2.943279
283.591461	728.240967	1338.712036	735.151184	1.131948
283.963135	723.857117	1319.319092	734.631042	1.809339
284.334747	733.442200	1323.703003	732.030457	-0.239173
284.706360	726.234802	1343.616211	739.237793	2.106152
285.077942	718.655823	1375.789185	738.717712	3.052940
285.449524	711.968689	1407.739380	741.318176	4.218270
285.821014	713.380432	1428.395508	740.575195	3.803383
286.192535	727.349365	1448.234375	743.993164	2.308801
286.563995	730.024231	1464.655273	744.661865	1.992515
286.935425	731.584534	1477.732544	736.934387	0.716996
287.306824	727.423645	1477.583984	738.048889	1.416396
287.678223	721.999512	1468.593384	738.420410	2.199442
288.049561	723.708496	1459.082520	746.445129	3.091846
288.420898	724.600159	1445.708008	745.553528	2.905719
288.792145	725.714661	1431.813354	737.825989	1.715246
289.163452	725.268860	1439.689453	732.401917	0.998439
289.534668	724.005676	1458.933960	731.361755	1.000925
289.905914	731.807434	1497.497070	743.250183	1.494437
290.277039	730.470032	1524.617554	745.627869	1.908693
290.648193	727.275085	1567.267212	742.432800	1.804507
291.019318	723.931396	1603.675781	736.340027	1.410481
291.390381	724.823059	1622.845703	732.922058	0.901870
291.761475	731.584534	1625.372070	736.785828	0.581939
292.132507	732.996399	1606.573364	736.117126	0.357236
292.503510	726.457703	1592.604492	740.500977	1.621350
292.874481	727.052063	1575.737793	741.615479	1.715996
293.245422	719.844727	1582.053589	746.519348	3.093754
293.616364	719.324646	1606.647827	743.250183	2.696372
293.987213	713.083191	1643.724976	739.386414	2.826353
294.358093	717.689941	1684.962891	733.070618	1.590107
294.728943	724.228699	1731.848022	726.457703	0.221215
295.099731	726.531982	1778.807129	727.646484	0.105914
295.470490	727.646484	1814.398071	728.909668	0.116235
295.841248	726.680603	1831.562134	732.476257	0.524550
296.211975	727.497864	1847.537231	730.395691	0.258725
296.582642	731.807434	1883.351196	731.807434	0.000000
296.953308	724.822998	1932.688110	735.894226	0.916595
297.323883	720.885010	1981.281860	740.055176	1.520963
297.694519	716.129639	2010.185669	745.999329	2.308222
298.065063	721.479431	2014.866821	744.290344	1.763657
298.435608	728.389587	2000.229126	741.689758	1.045743
298.806122	725.194519	1953.790039	735.076843	0.804359
299.176575	720.959290	1911.065918	736.860107	1.336083
299.547028	708.699402	1871.239624	740.723816	2.754693
299.917450	714.494934	1845.308105	734.036621	1.728109
300.287872	721.553711	1829.927368	732.253357	0.965346
300.658234	731.584656	1815.289917	719.993347	-1.069600
301.028564	724.971680	1811.871704	729.578369	0.423837
301.398865	719.027405	1805.036011	729.578430	0.971542
301.769135	715.386536	1811.723267	737.231628	1.992553
302.139374	715.460938	1829.333008	725.194580	0.873856
302.509583	714.643555	1839.735352	726.531982	1.056663
302.879791	717.392761	1835.500122	723.559875	0.551567
303.249939	720.290527	1818.336304	729.429871	0.832328
303.620087	723.039795	1810.757324	729.801270	0.621620
303.990173	716.872620	1802.658203	729.801331	1.190724
304.360260	723.336975	1796.862671	733.219238	0.920543
304.730286	726.903503	1796.342407	735.522644	0.805950
305.100281	727.349365	1810.311401	736.117004	0.809598
305.470276	719.919128	1833.419556	740.872375	1.881746
305.840179	715.535156	1838.694946	736.117004	1.832495
306.210144	717.912903	1843.301758	739.089172	1.881685
306.579987	721.479492	1844.936523	736.711487	1.355815
306.949890	718.730286	1864.552368	736.860046	1.582249
307.319702	725.268860	1883.351074	735.671204	0.898239
307.689484	724.451477	1908.985718	734.928223	0.884461
308.059265	728.538147	1936.923462	737.231628	0.719430
308.429016	722.445313	1974.520508	741.987000	1.560744
308.798737	725.120178	2012.340698	737.603088	0.969757
309.168396	727.423584	2054.693359	730.024231	0.195940
309.538055	730.841553	2085.157471	727.720886	-0.230424
309.907684	726.903503	2120.525391	734.853943	0.570488
310.277313	725.120300	2145.788330	744.810547	1.385985
310.646851	726.903503	2160.723145	743.101501	1.129710
311.016388	725.640381	2176.103760	745.999329	1.403617
311.385895	722.668213	2179.967529	742.135559	1.335851
311.755371	726.680664	2209.985840	740.500977	0.931724
312.124817	723.039795	2198.543213	728.092346	0.342429
312.494232	731.807556	2200.920654	731.733215	-0.005060
312.863617	725.268860	2176.920898	727.869446	0.179147
313.232971	727.943787	2170.531006	728.686829	0.051508
313.602295	721.256531	2157.825439	723.708496	0.170682
313.971619	718.581604	2158.642578	725.045898	0.448890
314.340820	718.953125	2167.038818	723.114075	0.287341
314.710083	730.618652	2188.735352	726.680664	-0.270074
315.079285	730.544250	2212.958008	724.674500	-0.395959
315.448486	737.751709	2256.350830	732.253235	-0.362075
315.817596	725.417480	2253.155518	727.126465	0.111864
316.186707	731.881775	2239.186768	729.652649	-0.147888
316.555786	724.005676	2196.165283	720.810730	-0.217024
316.924866	723.931396	2165.849854	720.736328	-0.221585
317.293884	717.615723	2137.986328	720.959290	0.235401
317.662872	720.885010	2133.454102	728.538147	0.541789
318.031830	725.194580	2139.621338	729.281189	0.288923
318.400757	725.120300	2152.549805	732.401917	0.510121
318.769684	723.039795	2168.004639	733.590759	0.730188
319.138550	721.776672	2195.868164	737.974609	1.098842
319.507416	732.550537	2220.759766	740.278015	0.519247
319.876190	730.618652	2229.601807	733.813660	0.213145
320.244995	733.070618	2225.738037	733.962341	0.059740
320.613770	720.959290	2201.589600	733.070618	0.817985
320.982483	719.324646	2194.531006	739.312012	1.354886
321.351166	711.448547	2178.184326	739.014832	1.879431
321.719818	720.959290	2177.441406	736.265625	1.050911
322.088440	726.086182	2167.633057	738.494812	0.860786
322.457062	722.891174	2195.422607	740.723877	1.211024
322.825623	715.386536	2224.326416	740.203674	1.644674
323.194183	718.210144	2265.861572	732.699158	0.936194
323.562653	729.058289	2304.796143	727.795105	-0.080165
323.931183	727.572266	2363.272461	726.011902	-0.095394
324.299591	722.965515	2415.061279	735.522644	0.742105
324.668060	722.073914	2481.636475	734.036621	0.679868
325.036407	722.965515	2527.184326	739.237793	0.901902
