Jaz Data File
++++++++++++++++++++++++++++++++++++
Date: Fri Jun 04 16:56:09 2021
User: jaz
Dark Spectrum Present: Yes
Reference Spectrum Present: Yes
Processed Spectrum Present: Yes
Spectrometers: JAZA3586
Integration Time (usec): 26900 (JAZA3586)
Spectra Averaged: 10 (JAZA3586)
Boxcar Smoothing: 1 (JAZA3586)
Correct for Electrical Dark: No (JAZA3586)
Strobe/Lamp Enabled: Yes (JAZA3586)
Correct for Detector Non-linearity: No (JAZA3586)
Correct for Stray Light: No (JAZA3586)
Number of Pixels in Processed Spectrum: 2048
>>>>>Begin Processed Spectral Data<<<<<
W	D	R	S	P
191.335022	0.000000	0.000000	0.000000	0.000000
191.713211	231.824478	223.576904	234.870895	-36.937134
192.091385	465.580902	454.658356	474.645752	-82.992096
192.469528	703.795410	697.033875	716.203918	-183.516129
192.847641	715.832458	712.340149	719.473206	-104.250412
193.225739	725.120300	725.268860	726.680603	1050.287598
193.603790	738.123230	728.761047	734.185120	42.064018
193.981842	739.089172	738.197571	742.581360	-391.675781
194.359863	739.460632	743.324463	736.785828	-69.226761
194.737854	732.624817	745.702148	735.299744	20.454683
195.115829	740.278015	744.216003	737.528809	-69.812462
195.493774	746.890930	744.884766	742.432800	222.221542
195.871704	745.627747	747.856873	741.689758	-176.660645
196.249603	741.912598	747.485352	743.547363	29.334969
196.627457	744.661865	747.782532	741.169617	-111.907135
197.005310	745.107727	743.175781	732.253357	665.358704
197.383133	743.324463	743.398743	730.841553	-16805.259766
197.760910	734.036621	739.386414	737.454529	63.888603
198.138687	732.327637	735.894104	749.640137	485.424347
198.516449	729.281250	735.299805	747.485413	302.467346
198.894180	729.206848	732.624817	740.798157	339.128571
199.271866	735.299744	734.556641	739.980774	-629.930176
199.649536	736.934387	730.247070	733.293518	54.444393
200.027191	736.042725	729.504089	733.367859	40.908623
200.404816	733.962219	731.361633	728.463867	211.427429
200.782410	733.367859	754.321289	733.590759	1.063789
201.159988	737.454529	773.788574	739.683594	6.134921
201.537537	735.151123	779.138367	741.912659	15.371583
201.915070	731.658875	774.457275	741.392517	22.743006
202.292557	737.454529	775.943359	736.414246	-2.702818
202.670029	740.426575	783.522217	731.213074	-21.379194
203.047485	742.284180	778.692566	738.420410	-10.612307
203.424911	730.098572	769.701904	744.141785	35.459675
203.802292	728.018066	760.042480	742.507141	45.243839
204.179688	728.166687	759.968201	735.076843	21.729017
204.557037	732.699158	756.104492	734.259521	6.666701
204.934357	727.423645	767.547180	739.237793	29.444435
205.311661	730.470032	764.277832	744.959167	42.857376
205.688934	726.383362	771.039368	746.519470	45.091602
206.066177	728.166687	760.711243	743.547363	47.260368
206.443390	717.541321	768.587402	736.191345	36.535664
206.820587	723.039734	772.451111	728.835388	11.729392
207.197769	728.092346	776.166260	733.887939	12.055589
207.574921	731.213074	773.491394	736.414246	12.302219
207.952042	731.510254	767.175598	739.163391	21.458189
208.329147	725.714661	766.581116	727.646484	4.727162
208.706223	728.463867	778.766785	735.151062	13.293851
209.083267	718.730225	781.590332	737.008606	29.077871
209.460297	714.717834	779.509827	748.228333	51.720123
209.837280	715.460876	770.965088	739.014832	42.436340
210.214264	715.163757	768.736023	732.401855	32.177280
210.591217	727.052063	772.748291	730.098572	6.666872
210.968124	728.018066	770.816406	728.315247	0.694373
211.345016	736.637146	770.593567	728.835449	-22.975616
211.721893	729.206848	763.386169	730.767273	4.565406
212.098724	721.256531	751.869324	735.596985	46.844646
212.475555	717.467102	755.064270	742.507080	66.600700
212.852356	712.265930	756.847473	737.231628	56.000076
213.229126	721.330750	768.290100	733.962219	26.898731
213.605865	715.609436	765.318054	726.977844	22.870094
213.982590	722.296692	764.946472	728.463867	14.460040
214.359283	716.129639	755.138489	723.857117	19.809551
214.735931	724.005676	754.321228	725.789001	5.882543
215.112579	722.296814	755.807312	728.389587	18.181686
215.489197	725.343079	759.225281	732.773438	21.929976
215.865799	720.439148	750.531738	732.253235	39.259121
216.242355	717.021301	753.875488	726.829285	26.612942
216.618896	712.934631	757.144714	727.126465	32.100899
216.995407	711.968689	766.283997	720.439148	15.594975
217.371902	714.049133	764.872253	725.640320	22.806917
217.748367	719.621826	759.893860	719.473206	-0.369042
218.124802	722.891113	757.441895	728.018005	14.838716
218.501236	721.256531	755.064270	728.463867	21.318600
218.877609	711.299988	755.212891	733.293457	50.084297
219.253983	714.123352	758.333496	735.596924	48.571594
219.630295	715.312256	760.562683	730.618652	33.825970
220.006592	720.216309	758.556458	732.550537	32.170528
220.382889	716.946960	753.875427	727.126465	27.565468
220.759140	720.662109	754.841309	730.693054	29.348099
221.135391	726.383484	756.996094	730.098572	12.135809
221.511581	726.754944	762.866028	736.562805	27.160252
221.887772	727.646545	759.893982	738.271790	32.949112
222.263931	728.835388	769.256042	742.284180	33.272079
222.640060	725.788879	762.568848	741.615417	43.030319
223.016159	716.055359	765.838196	747.931152	64.029686
223.392212	713.083191	765.392395	750.977539	72.442986
223.768265	717.912903	772.005310	753.429504	65.659126
224.144302	728.389465	775.348877	745.702148	36.867332
224.520294	722.965393	780.252869	741.169678	31.777077
224.896286	727.126465	777.429382	735.448303	16.543451
225.272217	727.349365	776.091980	733.888000	13.414618
225.648148	729.281189	769.479004	732.401917	7.763426
226.024048	727.349365	766.952698	733.219238	14.821665
226.399902	729.206848	768.884521	733.070618	9.737893
226.775772	731.138733	765.020813	729.504089	-4.824508
227.151581	728.240967	774.977356	731.584534	7.154098
227.527374	725.120300	771.485107	729.132629	8.653825
227.903137	725.194580	770.519226	734.036621	19.508240
228.278870	721.776611	765.095154	738.420410	38.421883
228.654572	721.256531	765.689514	744.587585	52.508415
229.030273	723.931396	767.398499	742.358582	42.393406
229.405930	727.646484	770.742188	731.584656	9.138200
229.781555	721.107910	769.999207	730.321472	18.844994
230.157181	719.770508	775.794739	732.699158	23.076889
230.532761	710.334045	776.463379	734.036621	35.842754
230.908325	713.528992	774.605774	732.922058	31.751945
231.283859	714.792175	772.822571	729.132568	24.711864
231.659332	722.519714	766.878357	729.726990	16.247736
232.034821	723.039795	774.011414	734.482422	22.449017
232.410263	719.770508	771.410828	739.312073	37.841682
232.785690	722.148132	770.593506	743.101563	43.251663
233.161087	726.457703	770.742188	747.336731	47.147503
233.536469	723.114075	775.646179	745.256287	42.149868
233.911804	720.810730	776.983582	748.154053	48.677113
234.287140	712.414490	773.045471	734.259460	36.029388
234.662430	713.974854	764.872253	729.355469	30.218863
235.037704	719.027405	758.779358	716.203918	-7.102761
235.412933	723.931396	758.556458	717.095520	-19.742569
235.788162	727.423645	761.974426	715.535156	-34.408741
236.163345	725.343079	769.627625	722.222473	-7.046714
236.538513	725.714661	767.398499	725.937683	0.535033
236.913635	722.668213	768.438782	728.389648	12.500250
237.288742	711.076965	767.101318	736.637207	45.623447
237.663834	713.231873	767.992981	742.729980	53.866894
238.038879	718.507324	768.810242	741.615479	45.938000
238.413910	725.640381	770.742126	734.705383	20.099007
238.788910	725.343201	773.194092	735.745544	21.739080
239.163879	730.544250	770.593445	739.163574	21.521841
239.538834	730.841492	773.714172	741.541199	24.956936
239.913757	729.206848	771.336609	733.219238	9.523886
240.288651	717.244141	767.101318	736.117004	37.853855
240.663528	715.312317	772.153870	735.225403	35.032619
241.038361	716.203918	778.098145	731.658875	24.969948
241.413177	722.742615	790.283752	723.708496	1.430064
241.787979	725.268860	781.367432	727.943848	4.768371
242.162735	722.668274	787.831787	731.881836	14.139143
242.537476	718.284363	787.088684	737.825989	28.401743
242.912170	713.974854	802.692383	731.658875	19.932951
243.286865	716.129578	799.868835	737.305847	25.288342
243.661514	723.039734	803.583984	734.333801	14.022189
244.036148	728.612488	795.336365	734.482422	8.797352
244.410751	730.321472	796.079346	734.110840	5.762607
244.785339	719.919128	795.782166	743.695984	31.341818
245.159882	718.804504	802.097839	748.971375	36.217628
245.534378	720.662109	799.571594	749.937317	37.099731
245.908890	727.126465	796.227966	743.844543	24.193510
246.283356	733.813660	792.067078	736.785828	5.102135
246.657791	730.841553	797.862610	736.117004	7.871335
247.032196	723.039734	808.785095	733.813721	12.565096
247.406586	715.386536	814.803650	734.853943	19.581545
247.780960	715.163757	827.732361	736.637207	19.075878
248.155289	719.398926	834.568176	739.014893	17.032295
248.529602	719.919128	839.472168	742.432800	18.831535
248.903870	722.073914	829.367004	733.367859	10.526256
249.278122	722.222412	819.410400	729.727051	7.721776
249.652344	723.336975	813.837646	727.795166	4.926141
250.026550	718.358704	811.905762	727.572266	9.849120
250.400711	725.491760	809.602356	738.420471	15.371085
250.774857	722.593994	807.224670	733.219299	12.554910
251.148987	732.476257	807.967773	733.293518	1.082586
251.523071	727.943665	813.837646	730.172852	2.595277
251.897125	728.612488	814.729309	731.287415	3.106161
252.271164	714.494934	817.701416	736.265625	21.094305
252.645187	711.597168	816.735535	733.219238	20.565348
253.019165	708.402161	820.896484	737.677429	26.023773
253.393112	713.826233	816.958435	738.717712	24.135508
253.767044	714.346375	815.175110	736.042725	21.518023
254.140930	725.788879	804.401306	742.952942	21.833778
254.514801	718.878845	802.246399	741.689758	27.361860
254.888657	724.897400	800.166016	740.946777	21.322802
255.262466	723.411316	812.128723	737.751770	16.164194
255.636276	735.002502	815.546692	743.695984	10.793431
256.010010	733.070618	822.159668	752.017822	21.267714
256.383759	724.377258	826.172058	747.411072	22.627691
256.757446	720.885010	830.630127	741.020996	18.347956
257.131134	715.758118	831.521790	732.624817	14.569942
257.504791	719.398987	829.887024	730.247131	9.818388
257.878418	715.832458	836.871582	732.773438	13.996284
258.252014	714.569336	855.595886	733.665100	13.540545
258.625580	715.832458	871.050781	730.395813	9.382497
258.999115	721.330811	893.861633	723.039795	0.990539
259.372650	726.086243	902.778015	728.092346	1.135369
259.746124	720.067688	921.502380	739.460754	9.627471
260.119598	710.408264	937.254578	745.850769	15.624016
260.493042	706.990417	950.851990	741.541199	14.168194
260.866425	711.076965	960.511292	739.386414	11.349460
261.239838	715.683777	950.926270	729.206848	5.748567
261.613159	717.392761	937.403137	732.030457	6.653184
261.986511	721.107910	912.288879	728.835388	4.041970
262.359802	725.566101	896.536621	740.129395	8.518014
262.733063	730.024231	886.431458	734.556641	2.897826
263.106293	729.355530	886.208557	737.008728	4.879216
263.479523	736.562805	884.351013	739.683594	2.111663
263.852692	732.922058	881.304504	745.107666	8.212297
264.225861	729.875671	881.378845	745.850769	10.544398
264.598969	722.296692	882.864807	747.262451	15.548391
264.972076	723.857117	890.666687	749.194336	15.189308
265.345154	729.652649	891.261169	753.058105	14.482811
265.718201	730.544373	903.966980	748.005554	10.068573
266.091217	731.138733	914.517883	745.999329	8.103754
266.464203	722.965515	928.189514	746.445129	11.440969
266.837158	721.627991	936.065674	748.302734	12.439392
267.210114	721.405090	947.582520	752.686584	13.830511
267.583038	724.228577	962.666016	746.742371	9.442223
267.955902	724.080017	965.563782	748.377014	10.061544
268.328766	725.640381	974.405945	741.615417	6.421723
268.701569	725.863281	967.421387	741.615417	6.521055
269.074371	726.309143	971.508057	735.151062	3.606019
269.447144	719.250427	972.845459	734.333801	5.947819
269.819885	716.872620	988.374756	736.785828	7.334457
270.192596	714.866516	994.096008	739.534973	8.834474
270.565277	723.411316	1006.727539	742.209900	6.635195
270.937927	724.971680	1021.662354	735.596924	3.581253
271.310577	726.606384	1053.241089	733.813721	2.206543
271.683136	717.318542	1078.652588	731.658875	3.968719
272.055725	720.810730	1106.218872	738.494690	4.588372
272.428284	715.609558	1112.757568	742.507019	6.772654
272.800812	724.302917	1114.540894	744.959045	5.293213
273.173279	719.844788	1101.314941	741.987000	5.804441
273.545776	726.457703	1109.116699	736.562805	2.640759
273.918152	720.885071	1102.057983	732.401917	3.021423
274.290558	720.885071	1099.828979	725.566101	1.235283
274.662964	715.683838	1084.076782	731.733215	4.356592
275.035278	720.067688	1082.293457	737.751709	4.882044
275.407593	720.513489	1095.073486	745.479187	6.665340
275.779907	721.851013	1107.779175	744.141663	5.775855
276.152161	716.798340	1123.234253	741.392517	6.051182
276.524384	714.494934	1127.692383	743.175781	6.941196
276.896606	721.107910	1147.828491	741.615417	4.805840
277.268799	714.643555	1161.128540	742.729980	6.290565
277.640930	720.141907	1172.496948	736.414246	3.597249
278.013031	714.346375	1163.432007	734.110840	4.401046
278.385162	719.250305	1164.843750	733.665039	3.234952
278.757233	711.077148	1162.688843	735.225403	5.347128
279.129272	711.671448	1175.171875	736.340027	5.322234
279.501282	714.717957	1186.540161	732.476257	3.763770
279.873230	717.838562	1203.778320	725.194580	1.513772
280.245178	719.027405	1222.576904	721.925232	0.575480
280.617126	719.324646	1243.827515	725.863281	1.246635
280.988983	716.872620	1269.610474	746.147949	5.296422
281.360870	706.470276	1287.369019	752.686523	7.955990
281.732697	702.755188	1313.597778	749.937317	7.724106
282.104492	705.801575	1338.414917	739.386414	5.308905
282.476288	714.272034	1366.204102	740.203796	3.977679
282.848053	720.587708	1385.151367	739.014893	2.772825
283.219757	722.668213	1396.891113	741.392578	2.777177
283.591461	726.829163	1403.801392	741.689758	2.195156
283.963135	723.039795	1399.640259	746.445129	3.459255
284.334747	714.940735	1397.114258	745.999329	4.552887
284.706360	710.259766	1418.884766	744.216064	4.791857
285.077942	707.287598	1453.658325	743.101563	4.798415
285.449524	716.129639	1487.540405	737.603210	2.783675
285.821014	716.352539	1496.828125	733.516418	2.199157
286.192535	722.965515	1511.985962	738.643372	1.987003
286.563995	717.764343	1537.397827	740.872375	2.819313
286.935425	714.866455	1566.152832	748.302734	3.927736
287.306824	715.683777	1568.233398	741.169617	2.989367
287.678223	723.931458	1554.561523	740.872375	2.039526
288.049561	734.036621	1536.208618	732.550537	-0.185258
288.420898	732.179016	1520.530884	736.934387	0.603204
288.792145	736.191345	1516.221191	741.689758	0.704898
289.163452	732.401917	1522.239868	750.531738	2.295385
289.534668	730.321472	1549.731812	744.810486	1.768224
289.905914	723.114075	1576.852173	741.763977	2.184499
290.277039	723.857117	1612.963379	736.860107	1.462479
290.648193	728.092346	1651.526733	744.290344	1.754104
291.019318	730.915833	1693.804810	743.621582	1.319545
291.390381	735.002502	1715.575562	745.850769	1.106319
291.761475	732.253418	1715.798462	749.491516	1.752650
292.132507	726.532043	1702.795410	754.767029	2.892148
292.503510	714.866455	1689.049438	748.154053	3.416976
292.874481	718.061523	1673.297363	747.188171	3.049158
293.245422	722.073914	1679.390137	743.175781	2.204273
293.616364	729.206848	1696.331055	745.702087	1.705597
293.987213	726.606384	1740.095337	742.655701	1.583571
294.358093	732.104736	1787.277710	743.250061	1.056256
294.728943	730.321472	1849.469116	745.107666	1.321201
295.099731	727.126404	1901.629761	744.067383	1.442395
295.470490	715.535156	1936.254517	740.723816	2.063427
295.841248	717.541443	1960.402954	735.671204	1.458711
296.211975	719.176086	1987.300659	731.733154	0.990208
296.582642	726.160583	2035.077271	737.305847	0.851488
296.953308	721.033630	2082.185059	747.188171	1.921501
297.323883	721.405090	2127.063965	749.417236	1.992812
297.694519	728.538147	2156.041992	744.290344	1.103478
298.065063	728.686768	2159.757324	734.705322	0.420563
298.435608	727.423645	2126.915527	735.299805	0.562787
298.806122	718.581604	2070.148193	731.584656	0.962073
299.176575	720.959290	2008.774048	736.265686	1.188556
299.547028	722.148132	1959.139771	743.175781	1.699902
299.917450	719.993408	1933.356812	748.525635	2.351499
300.287872	718.358704	1927.486938	750.754700	2.679286
300.658234	720.587830	1937.443359	738.866272	1.502105
301.028564	724.897278	1937.963501	737.528809	1.041290
301.398865	726.903503	1928.973022	738.866272	0.995181
301.769135	726.309082	1923.474487	736.860046	0.881329
302.139374	724.971680	1919.684937	735.819824	0.908012
302.509583	726.383362	1928.601196	733.367737	0.580958
302.879791	721.330872	1935.362915	739.980774	1.536195
303.249939	719.621887	1935.140137	744.884766	2.078363
303.620087	721.107910	1923.103027	744.290344	1.928663
303.990173	724.748779	1904.898926	752.983826	2.392496
304.360260	730.172852	1898.880249	750.903320	1.773795
304.730286	730.098450	1904.973145	753.578186	1.998488
305.100281	730.395691	1913.369141	746.890930	1.394388
305.470276	730.990173	1928.972778	748.302734	1.445143
305.840179	732.253235	1952.229492	746.890930	1.199834
306.210144	730.024231	1976.675171	742.952942	1.037076
306.579987	717.392822	1995.325195	741.466858	1.883827
306.949890	706.990417	2007.213501	740.649597	2.588723
307.319702	711.745789	2022.445679	745.404846	2.568022
307.689484	723.039795	2038.420898	749.268616	1.994009
308.059265	732.327637	2069.256592	757.887756	1.911853
308.429016	731.733215	2112.723633	759.671082	2.023031
308.798737	725.714661	2176.103760	753.875427	1.941601
309.168396	725.343079	2225.069336	741.095276	1.050338
309.538055	722.445313	2266.381592	735.374023	0.837386
309.907684	728.538086	2287.409180	743.101563	0.934232
310.277313	731.658875	2309.997314	753.801086	1.402881
310.646851	731.213074	2330.578857	755.658630	1.528453
311.016388	728.463867	2347.594482	754.841309	1.629111
311.385895	728.686768	2351.606689	750.680420	1.355190
311.755371	736.340027	2347.446045	748.971436	0.784021
312.124817	738.717590	2346.554443	745.330566	0.411296
312.494232	730.544373	2348.263184	741.020996	0.647617
312.863617	721.627991	2345.588135	738.940613	1.066074
313.232971	714.049133	2341.947510	736.860107	1.401253
313.602295	716.946960	2323.817627	740.500977	1.465832
313.971619	716.501160	2323.817627	742.952942	1.645711
314.340820	712.414551	2321.216797	746.147949	2.096802
314.710083	709.516663	2363.718018	742.061279	1.967391
315.079285	708.402161	2404.213135	745.107666	2.164481
315.448486	721.776672	2449.389160	744.661865	1.324672
315.817596	720.587830	2450.132080	745.479187	1.439186
316.186707	724.080078	2408.299805	739.312012	0.904391
316.555786	720.216309	2353.167236	738.494690	1.119347
316.924866	722.222473	2305.687744	739.683594	1.102716
317.293884	727.423645	2294.170654	747.708252	1.294696
317.662872	730.172852	2293.502197	745.181946	0.960072
318.031830	722.445313	2310.517578	741.541199	1.202457
318.400757	720.587830	2319.730713	746.222229	1.603009
318.769684	721.999512	2331.544922	745.033386	1.431080
319.138550	728.241028	2346.405518	754.469910	1.620903
319.507416	724.228699	2373.006104	749.120056	1.509686
319.876190	720.141907	2386.529053	754.544128	2.064479
320.244995	722.073792	2386.157715	753.949707	1.915523
320.613770	722.371094	2358.962891	747.931213	1.561790
320.982483	721.702332	2338.529541	752.537903	1.907166
321.351166	722.222473	2316.684570	746.890930	1.547133
321.719818	720.067688	2313.638428	750.903320	1.935002
322.088440	717.764343	2317.873291	748.451233	1.917800
322.457062	718.878845	2339.124023	753.949707	2.164541
322.825623	720.662109	2375.904053	752.240723	1.907794
323.194183	720.959290	2426.058350	747.931152	1.581836
323.562653	726.829285	2481.042236	741.392517	0.830186
323.931183	731.287415	2549.697754	747.931152	0.915291
324.299591	732.922058	2615.084229	746.222229	0.706643
324.668060	726.606262	2674.452393	750.383240	1.220680
325.036407	721.033630	2709.597412	755.138611	1.715056
325.404755	719.547546	2731.887939	762.866028	2.152642
