Jaz Data File
++++++++++++++++++++++++++++++++++++
Date: Fri Jun 04 16:55:53 2021
User: jaz
Dark Spectrum Present: Yes
Reference Spectrum Present: Yes
Processed Spectrum Present: Yes
Spectrometers: JAZA3586
Integration Time (usec): 26900 (JAZA3586)
Spectra Averaged: 10 (JAZA3586)
Boxcar Smoothing: 1 (JAZA3586)
Correct for Electrical Dark: No (JAZA3586)
Strobe/Lamp Enabled: Yes (JAZA3586)
Correct for Detector Non-linearity: No (JAZA3586)
Correct for Stray Light: No (JAZA3586)
Number of Pixels in Processed Spectrum: 2048
>>>>>Begin Processed Spectral Data<<<<<
W	D	R	S	P
191.335022	0.000000	0.000000	0.000000	0.000000
191.713211	231.824478	223.576904	231.230042	7.207412
192.091385	465.580902	454.658356	464.466278	10.204800
192.469528	703.795410	697.033875	700.303040	51.650555
192.847641	715.832458	712.340149	710.185364	161.700867
193.225739	725.120300	725.268860	720.662109	-3000.945068
193.603790	738.123230	728.761047	726.160461	127.777557
193.981842	739.089172	738.197571	733.962219	575.027405
194.359863	739.460632	743.324463	743.547363	105.768898
194.737854	732.624817	745.702148	753.726807	161.363113
195.115829	740.278015	744.216003	750.011658	247.172974
195.493774	746.890930	744.884766	734.036621	640.740540
195.871704	745.627747	747.856873	732.104736	-606.650757
196.249603	741.912598	747.485352	738.420471	-62.664288
196.627457	744.661865	747.782532	742.358582	-73.807426
197.005310	745.107727	743.175781	737.603210	388.443420
197.383133	743.324463	743.398743	729.801331	-18205.669922
197.760910	734.036621	739.386414	736.711426	49.998287
198.138687	732.327637	735.894104	735.596985	91.669090
198.516449	729.281250	735.299805	736.711487	123.455498
198.894180	729.206848	732.624817	731.584534	69.564285
199.271866	735.299744	734.556641	735.076843	29.995893
199.649536	736.934387	730.247070	739.460693	-37.777576
200.027191	736.042725	729.504089	735.448303	9.090909
200.404816	733.962219	731.361633	735.968445	-77.145134
200.782410	733.367859	754.321289	738.569092	24.822823
201.159988	737.454529	773.788574	752.092102	40.286110
201.537537	735.151123	779.138367	755.212891	45.608150
201.915070	731.658875	774.457275	746.445129	34.548615
202.292557	737.454529	775.943359	746.222168	22.779697
202.670029	740.426575	783.522217	743.472961	7.068897
203.047485	742.284180	778.692566	755.435730	36.122311
203.424911	730.098572	769.701904	751.423340	53.845894
203.802292	728.018066	760.042480	754.469910	82.598991
204.179688	728.166687	759.968201	746.593750	57.943981
204.557037	732.699158	756.104492	741.987000	39.682587
204.934357	727.423645	767.547180	736.934387	23.703650
205.311661	730.470032	764.277832	728.538147	-5.714317
205.688934	726.383362	771.039368	732.030457	12.645767
206.066177	728.166687	760.711243	730.767273	7.990848
206.443390	717.541321	768.587402	741.392578	46.724953
206.820587	723.039734	772.451111	741.764099	37.894848
207.197769	728.092346	776.166260	742.878601	30.757336
207.574921	731.213074	773.491394	736.340027	12.126672
207.952042	731.510254	767.175598	732.178955	1.874933
208.329147	725.714661	766.581116	732.699036	17.090729
208.706223	728.463867	778.766785	748.599915	40.029583
209.083267	718.730225	781.590332	753.429504	55.200798
209.460297	714.717834	779.509827	750.531738	55.275200
209.837280	715.460876	770.965088	730.024231	26.238287
210.214264	715.163757	768.736023	721.405090	11.650307
210.591217	727.052063	772.748291	723.485596	-7.804730
210.968124	728.018066	770.816406	734.333801	14.756962
211.345016	736.637146	770.593567	741.095398	13.129334
211.721893	729.206848	763.386169	734.110840	14.347833
212.098724	721.256531	751.869324	729.578430	27.184385
212.475555	717.467102	755.064270	723.262695	15.414973
212.852356	712.265930	756.847473	731.584656	43.333462
213.229126	721.330750	768.290100	724.080078	5.854699
213.605865	715.609436	765.318054	730.470032	29.895411
213.982590	722.296692	764.946472	730.024231	18.118591
214.359283	716.129639	755.138489	732.327637	41.523907
214.735931	724.005676	754.321228	726.829163	9.313657
215.112579	722.296814	755.807312	728.538269	18.625372
215.489197	725.343079	759.225281	733.888000	25.219500
215.865799	720.439148	750.531738	734.408142	46.420044
216.242355	717.021301	753.875488	734.185242	46.572567
216.618896	712.934631	757.144714	732.476257	44.201740
216.995407	711.968689	766.283997	735.076843	42.544460
217.371902	714.049133	764.872253	728.761047	28.947287
217.748367	719.621826	759.893860	723.857117	10.516704
218.124802	722.891113	757.441895	716.575439	-18.279396
218.501236	721.256531	755.064270	720.587891	-1.977772
218.877609	711.299988	755.212891	719.621887	18.950920
219.253983	714.123352	758.333496	726.086182	27.059015
219.630295	715.312256	760.562683	728.092285	28.242891
220.006592	720.216309	758.556458	739.757813	50.968773
220.382889	716.946960	753.875427	748.154114	84.507034
220.759140	720.662109	754.841309	740.649475	58.478157
221.135391	726.383484	756.996094	738.346130	39.077511
221.511581	726.754944	762.866028	734.110840	20.370190
221.887772	727.646545	759.893982	746.222168	57.603409
222.263931	728.835388	769.256042	748.897156	49.632465
222.640060	725.788879	762.568848	745.107727	52.525459
223.016159	716.055359	765.838196	739.980774	48.059566
223.392212	713.083191	765.392395	735.299622	42.471359
223.768265	717.912903	772.005310	735.894043	33.241524
224.144302	728.389465	775.348877	734.482422	12.974942
224.520294	722.965393	780.252869	738.791992	27.626631
224.896286	727.126465	777.429382	737.380188	20.383953
225.272217	727.349365	776.091980	736.785706	19.359528
225.648148	729.281189	769.479004	730.172852	2.218187
226.024048	727.349365	766.952698	731.733215	11.069397
226.399902	729.206848	768.884521	732.699036	8.801392
226.775772	731.138733	765.020813	733.813660	7.894813
227.151581	728.240967	774.977356	732.624817	9.379951
227.527374	725.120300	771.485107	729.875671	10.256424
227.903137	725.194580	770.519226	731.807556	14.590243
228.278870	721.776611	765.095154	734.928223	30.360235
228.654572	721.256531	765.689514	745.479248	54.515171
229.030273	723.931396	767.398499	745.776367	50.256332
229.405930	727.646484	770.742188	750.977600	54.137917
229.781555	721.107910	769.999207	744.364685	47.568333
230.157181	719.770508	775.794739	744.364685	43.899178
230.532761	710.334045	776.463379	736.414246	39.438171
230.908325	713.528992	774.605774	733.293640	32.360329
231.283859	714.792175	772.822571	731.213074	28.297064
231.659332	722.519714	766.878357	735.522644	29.313183
232.034821	723.039795	774.011414	737.825989	29.008680
232.410263	719.770508	771.410828	744.587585	48.057560
232.785690	722.148132	770.593506	736.191406	28.987854
233.161087	726.457703	770.742188	734.853943	18.959778
233.536469	723.114075	775.646179	731.807434	16.548660
233.911804	720.810730	776.983582	736.414246	27.777681
234.287140	712.414490	773.045471	736.488586	39.705933
234.662430	713.974854	764.872253	730.915833	33.284565
235.037704	719.027405	758.779358	733.293457	35.887676
235.412933	723.931396	758.556458	725.863281	5.579441
235.788162	727.423645	761.974426	724.897400	-7.311687
236.163345	725.343079	769.627625	721.330811	-9.060199
236.538513	725.714661	767.398499	728.166687	5.882439
236.913635	722.668213	768.438782	730.841553	17.857195
237.288742	711.076965	767.101318	735.002625	42.705818
237.663834	713.231873	767.992981	739.014832	47.082611
238.038879	718.507324	768.810242	750.308899	63.220139
238.413910	725.640381	770.742126	756.847473	69.192650
238.788910	725.343201	773.194092	753.801086	59.472008
239.163879	730.544250	770.593445	746.222229	39.146801
239.538834	730.841492	773.714172	741.392578	24.610279
239.913757	729.206848	771.336609	747.336853	43.033722
240.288651	717.244141	767.101318	743.547363	52.757145
240.663528	715.312317	772.153870	740.649597	44.575279
241.038361	716.203918	778.098145	737.528809	34.453762
241.413177	722.742615	790.283752	739.534973	24.862415
241.787979	725.268860	781.367432	740.352295	26.887379
242.162735	722.668274	787.831787	735.299744	19.384268
242.537476	718.284363	787.088684	735.819824	25.485989
242.912170	713.974854	802.692383	735.819824	24.623060
243.286865	716.129578	799.868835	740.798157	29.458797
243.661514	723.039734	803.583984	743.101563	24.907835
244.036148	728.612488	795.336365	738.940613	15.478904
244.410751	730.321472	796.079346	733.590820	4.971797
244.785339	719.919128	795.782166	727.869446	10.479830
245.159882	718.804504	802.097839	726.754883	9.545035
245.534378	720.662109	799.571594	724.525879	4.896458
245.908890	727.126465	796.227966	732.401917	7.634352
246.283356	733.813660	792.067078	735.374023	2.678579
246.657791	730.841553	797.862610	741.318298	15.632021
247.032196	723.039734	808.785095	735.522644	14.558117
247.406586	715.386536	814.803650	739.237793	23.991098
247.780960	715.163757	827.732361	734.036621	16.765656
248.155289	719.398926	834.568176	738.346191	16.451670
248.529602	719.919128	839.472168	740.426575	17.153429
248.903870	722.073914	829.367004	738.420410	15.235368
249.278122	722.222412	819.410400	733.442139	11.544355
249.652344	723.336975	813.837646	731.138733	8.620663
250.026550	718.358704	811.905762	739.014832	22.081001
250.400711	725.491760	809.602356	734.631042	10.865792
250.774857	722.593994	807.224670	728.240967	6.672489
251.148987	732.476257	807.967773	719.696106	-16.929255
251.523071	727.943665	813.837646	726.680664	-1.470418
251.897125	728.612488	814.729309	728.686829	0.086326
252.271164	714.494934	817.701416	733.516418	18.430513
252.645187	711.597168	816.735535	726.011902	13.710251
253.019165	708.402161	820.896484	731.956116	20.937906
253.393112	713.826233	816.958435	727.497864	13.256413
253.767044	714.346375	815.175110	737.454407	22.918102
254.140930	725.788879	804.401306	737.603088	15.028424
254.514801	718.878845	802.246399	744.810486	31.105196
254.888657	724.897400	800.166016	739.832214	19.842020
255.262466	723.411316	812.128723	730.395752	7.872678
255.636276	735.002502	815.546692	732.996338	-2.490763
256.010010	733.070618	822.159668	738.569031	6.171817
256.383759	724.377258	826.172058	748.525635	23.722603
256.757446	720.885010	830.630127	747.188171	23.967501
257.131134	715.758118	831.521790	750.085999	29.653414
257.504791	719.398987	829.887024	749.342957	27.101549
257.878418	715.832458	836.871582	748.971436	27.378733
258.252014	714.569336	855.595886	743.993164	20.864035
258.625580	715.832458	871.050781	739.832214	15.461935
258.999115	721.330811	893.861633	735.225403	8.053397
259.372650	726.086243	902.778015	733.442139	4.163123
259.746124	720.067688	921.502380	739.089111	9.442973
260.119598	710.408264	937.254578	737.974609	12.151992
260.493042	706.990417	950.851990	738.123230	12.766592
260.866425	711.076965	960.511292	729.578430	7.417369
261.239838	715.683777	950.926270	742.581360	11.433982
261.613159	717.392761	937.403137	739.534973	10.064167
261.986511	721.107910	912.288879	738.569031	9.133294
262.359802	725.566101	896.536621	726.680603	0.651868
262.733063	730.024231	886.431458	731.658936	1.045159
263.106293	729.355530	886.208557	736.340027	4.452893
263.479523	736.562805	884.351013	743.473083	4.675798
263.852692	732.922058	881.304504	740.872498	5.358073
264.225861	729.875671	881.378845	739.014893	6.032363
264.598969	722.296692	882.864807	731.436035	5.691879
264.972076	723.857117	890.666687	734.705261	6.503311
265.345154	729.652649	891.261169	734.408020	2.942525
265.718201	730.544373	903.966980	741.243958	6.169660
266.091217	731.138733	914.517883	739.757874	4.700175
266.464203	722.965515	928.189514	748.079773	12.237486
266.837158	721.627991	936.065674	746.222229	11.469177
267.210114	721.405090	947.582520	738.717590	7.654389
267.583038	724.228577	962.666016	729.652649	2.274841
267.955902	724.080017	965.563782	727.274963	1.323048
268.328766	725.640381	974.405945	732.253235	2.658267
268.701569	725.863281	967.421387	736.339905	4.337103
269.074371	726.309143	971.508057	733.962219	3.121171
269.447144	719.250427	972.845459	732.253357	5.127439
269.819885	716.872620	988.374756	727.200684	3.804045
270.192596	714.866516	994.096008	730.470032	5.588061
270.565277	723.411316	1006.727539	736.934387	4.773137
270.937927	724.971680	1021.662354	738.643372	4.608063
271.310577	726.606384	1053.241089	735.076843	2.593251
271.683136	717.318542	1078.652588	733.219238	4.400553
272.055725	720.810730	1106.218872	735.448425	3.797972
272.428284	715.609558	1112.757568	747.782654	8.101034
272.800812	724.302917	1114.540894	753.652527	7.520952
273.173279	719.844788	1101.314941	759.522461	10.401253
273.545776	726.457703	1109.116699	759.893860	8.737847
273.918152	720.885071	1102.057983	757.516174	9.610102
274.290558	720.885071	1099.828979	748.079773	7.176445
274.662964	715.683838	1084.076782	740.872375	6.837410
275.035278	720.067688	1082.293457	742.061279	6.071791
275.407593	720.513489	1095.073486	744.661865	6.447132
275.779907	721.851013	1107.779175	748.599915	6.931057
276.152161	716.798340	1123.234253	736.488586	4.844613
276.524384	714.494934	1127.692383	742.432800	6.761384
276.896606	721.107910	1147.828491	732.996338	2.785998
277.268799	714.643555	1161.128540	740.872375	5.874514
277.640930	720.141907	1172.496948	732.624817	2.759538
278.013031	714.346375	1163.432007	742.358459	6.237582
278.385162	719.250305	1164.843750	744.141785	5.586141
278.757233	711.077148	1162.688843	747.411072	8.045390
279.129272	711.671448	1175.171875	746.296570	7.470354
279.501282	714.717957	1186.540161	735.076843	4.314949
279.873230	717.838562	1203.778320	735.448303	3.623853
280.245178	719.027405	1222.576904	728.389587	1.859238
280.617126	719.324646	1243.827515	741.318176	4.193214
280.988983	716.872620	1269.610474	740.872375	4.341978
281.360870	706.470276	1287.369019	743.175781	6.318744
281.732697	702.755188	1313.597778	740.129395	6.118468
282.104492	705.801575	1338.414917	745.033447	6.201556
282.476288	714.272034	1366.204102	745.181946	4.741278
282.848053	720.587708	1385.151367	744.810486	3.644915
283.219757	722.668213	1396.891113	740.278015	2.611866
283.591461	726.829163	1403.801392	743.324402	2.436620
283.963135	723.039795	1399.640259	745.181946	3.272559
284.334747	714.940735	1397.114258	750.085938	5.151945
284.706360	710.259766	1418.884766	748.154114	5.347589
285.077942	707.287598	1453.658325	747.411133	5.375818
285.449524	716.129639	1487.540405	737.603088	2.783660
285.821014	716.352539	1496.828125	735.151123	2.408606
286.192535	722.965515	1511.985962	734.779602	1.497311
286.563995	717.764343	1537.397827	742.655701	3.036889
286.935425	714.866455	1566.152832	741.615417	3.142181
287.306824	715.683777	1568.233398	731.435974	1.847658
287.678223	723.931458	1554.561523	734.556702	1.279179
288.049561	734.036621	1536.208618	743.175781	1.139302
288.420898	732.179016	1520.530884	749.342957	2.177193
288.792145	736.191345	1516.221191	743.175842	0.895414
289.163452	732.401917	1522.239868	736.191345	0.479773
289.534668	730.321472	1549.731812	744.959167	1.786369
289.905914	723.114075	1576.852173	752.240723	3.411661
290.277039	723.857117	1612.963379	753.875427	3.376234
290.648193	728.092346	1651.526733	751.274719	2.510452
291.019318	730.915833	1693.804810	745.627747	1.527893
291.390381	735.002502	1715.575562	749.120056	1.439725
291.761475	732.253418	1715.798462	749.863098	1.790429
292.132507	726.532043	1702.795410	748.748535	2.275666
292.503510	714.866455	1689.049438	744.364685	3.027997
292.874481	718.061523	1673.297363	741.243896	2.426874
293.245422	722.073914	1679.390137	736.711487	1.529022
293.616364	729.206848	1696.331055	734.779602	0.576219
293.987213	726.606384	1740.095337	732.996338	0.630491
294.358093	732.104736	1787.277710	735.671204	0.337998
294.728943	730.321472	1849.469116	740.055115	0.869737
295.099731	727.126404	1901.629761	738.420410	0.961598
295.470490	715.535156	1936.254517	741.838379	2.154731
295.841248	717.541443	1960.402954	739.980774	1.805457
296.211975	719.176086	1987.300659	738.123230	1.494107
296.582642	726.160583	2035.077271	746.965271	1.589458
296.953308	721.033630	2082.185059	751.646301	2.249028
297.323883	721.405090	2127.063965	757.218994	2.547837
297.694519	728.538147	2156.041992	743.398743	1.041020
298.065063	728.686768	2159.757324	739.386414	0.747667
298.435608	727.423645	2126.915527	739.683594	0.876029
298.806122	718.581604	2070.148193	745.776367	2.012092
299.176575	720.959290	2008.774048	744.810547	1.852072
299.547028	722.148132	1959.139771	743.250183	1.705917
299.917450	719.993408	1933.356812	744.513367	2.020826
300.287872	718.358704	1927.486938	754.841309	3.017265
300.658234	720.587830	1937.443359	757.441956	3.028636
301.028564	724.897278	1937.963501	754.618408	2.450083
301.398865	726.903503	1928.973022	746.890930	1.662751
301.769135	726.309082	1923.474487	741.541199	1.272349
302.139374	724.971680	1919.684937	742.507080	1.467750
302.509583	726.383362	1928.601196	739.312012	1.075400
302.879791	721.330872	1935.362915	745.107666	1.958498
303.249939	719.621887	1935.140137	745.924988	2.163941
303.620087	721.107910	1923.103027	748.674133	2.293372
303.990173	724.748779	1904.898926	748.971436	2.052506
304.360260	730.172852	1898.880249	753.058105	1.958168
304.730286	730.098450	1904.973145	752.612305	1.916277
305.100281	730.395691	1913.369141	750.606140	1.708445
305.470276	730.990173	1928.972778	741.912659	0.911740
305.840179	732.253235	1952.229492	743.324463	0.907495
306.210144	730.024231	1976.675171	739.534973	0.762903
306.579987	717.392822	1995.325195	747.708313	2.372230
306.949890	706.990417	2007.213501	744.067383	2.851585
307.319702	711.745789	2022.445679	752.537903	3.112239
307.689484	723.039795	2038.420898	751.274841	2.146530
308.059265	732.327637	2069.256592	754.618408	1.667312
308.429016	731.733215	2112.723633	746.742371	1.086840
308.798737	725.714661	2176.103760	746.890930	1.460041
309.168396	725.343079	2225.069336	746.890930	1.436786
309.538055	722.445313	2266.381592	744.141785	1.405270
309.907684	728.538086	2287.409180	735.374023	0.438518
310.277313	731.658875	2309.997314	740.278015	0.546090
310.646851	731.213074	2330.578857	746.222168	0.938440
311.016388	728.463867	2347.594482	749.120056	1.275758
311.385895	728.686768	2351.606689	747.559631	1.162896
311.755371	736.340027	2347.446045	736.934387	0.036891
312.124817	738.717590	2346.554443	743.324402	0.286522
312.494232	730.544373	2348.263184	740.798157	0.633842
312.863617	721.627991	2345.588135	745.330627	1.459558
313.232971	714.049133	2341.947510	741.021057	1.656855
313.602295	716.946960	2323.817627	740.872498	1.488952
313.971619	716.501160	2323.817627	747.411133	1.923080
314.340820	712.414551	2321.216797	746.222229	2.101419
314.710083	709.516663	2363.718018	747.188171	2.277323
315.079285	708.402161	2404.213135	740.723816	1.905970
315.448486	721.776672	2449.389160	739.163513	1.006409
315.817596	720.587830	2450.132080	732.699219	0.700265
316.186707	724.080078	2408.299805	736.191406	0.719106
316.555786	720.216309	2353.167236	737.083008	1.032897
316.924866	722.222473	2305.687744	744.587585	1.412416
317.293884	727.423645	2294.170654	747.782532	1.299437
317.662872	730.172852	2293.502197	751.051941	1.335553
318.031830	722.445313	2310.517578	750.903320	1.791984
318.400757	720.587830	2319.730713	749.714539	1.821395
318.769684	721.999512	2331.544922	744.736145	1.412612
319.138550	728.241028	2346.405518	742.061279	0.854070
319.507416	724.228699	2373.006104	742.432800	1.104097
319.876190	720.141907	2386.529053	745.404846	1.516031
320.244995	722.073792	2386.157715	744.290344	1.335062
320.613770	722.371094	2358.962891	745.256287	1.398345
320.982483	721.702332	2338.529541	747.262451	1.580881
321.351166	722.222473	2316.684570	747.931213	1.612377
321.719818	720.067688	2313.638428	744.438965	1.529350
322.088440	717.764343	2317.873291	746.370850	1.787785
322.457062	718.878845	2339.124023	746.519470	1.705953
322.825623	720.662109	2375.904053	755.212891	2.087355
323.194183	720.959290	2426.058350	749.268616	1.660275
323.562653	726.829285	2481.042236	758.184875	1.787445
323.931183	731.287415	2549.697754	758.705078	1.507782
324.299591	732.922058	2615.084229	760.636963	1.472504
324.668060	726.606262	2674.452393	754.767090	1.445742
325.036407	721.033630	2709.597412	749.863037	1.449760
325.404755	719.547546	2731.887939	750.903320	1.558174
