Jaz Data File
++++++++++++++++++++++++++++++++++++
Date: Fri Jun 04 17:07:16 2021
User: jaz
Dark Spectrum Present: Yes
Reference Spectrum Present: Yes
Processed Spectrum Present: Yes
Spectrometers: JAZA3586
Integration Time (usec): 120000 (JAZA3586)
Spectra Averaged: 10 (JAZA3586)
Boxcar Smoothing: 1 (JAZA3586)
Correct for Electrical Dark: No (JAZA3586)
Strobe/Lamp Enabled: Yes (JAZA3586)
Correct for Detector Non-linearity: No (JAZA3586)
Correct for Stray Light: No (JAZA3586)
Number of Pixels in Processed Spectrum: 2048
>>>>>Begin Processed Spectral Data<<<<<
W	D	R	S	P
191.335022	0.000000	0.000000	0.000000	0.000000
191.713211	229.818314	229.892624	227.217728	-3499.630371
192.091385	460.082428	468.552979	457.036041	-35.964447
192.469528	686.408508	696.142273	691.163879	48.854389
192.847641	692.724304	707.659180	700.080261	49.253555
193.225739	702.606506	714.197754	708.996582	55.128456
193.603790	719.547546	727.423584	717.690002	-23.584753
193.981842	727.869446	730.915833	721.553711	-207.318878
194.359863	736.340027	734.408020	729.727051	342.285339
194.737854	738.791992	737.900208	729.578430	1033.159912
195.115829	739.163513	739.312012	736.117004	-2051.541260
195.493774	740.203796	734.631042	733.813660	114.667488
195.871704	741.615479	730.247131	738.643311	26.144239
196.249603	741.912659	727.200745	743.324402	-9.595918
196.627457	738.346191	728.166687	740.649475	-22.626678
197.005310	736.934387	731.658875	736.042725	16.901913
197.383133	741.169678	738.346130	728.835266	436.840973
197.760910	750.383118	746.445129	732.253235	460.384369
198.138687	758.556458	749.268738	735.151123	252.003021
198.516449	765.095154	740.203674	738.866272	105.372932
198.894180	755.064270	727.052185	737.305908	63.395359
199.271866	748.451355	730.544373	732.699158	87.966789
199.649536	735.819824	735.076843	735.225403	80.004929
200.027191	733.144958	743.324524	735.745605	25.547722
200.404816	728.909668	743.547363	743.324402	98.476799
200.782410	730.544373	754.989929	738.643311	33.130512
201.159988	727.200684	768.513000	735.671204	20.503618
201.537537	725.566101	774.308594	728.984070	7.012298
201.915070	721.702332	775.051758	723.411316	3.203379
202.292557	726.606262	771.930969	728.018066	3.114867
202.670029	730.470032	773.194153	734.036560	8.347810
203.047485	734.259460	771.633789	737.380188	8.349923
203.424911	728.389587	768.215820	728.909729	1.306028
203.802292	722.296692	763.163269	725.640381	8.181965
204.179688	716.872742	763.014648	725.789001	19.323561
204.557037	725.640381	759.819641	732.327637	19.565245
204.934357	727.052063	759.522461	734.259521	22.197014
205.311661	731.658875	760.934143	731.510254	-0.507666
205.688934	723.188416	759.225159	738.643372	42.886662
206.066177	728.389648	764.054871	732.030457	10.208286
206.443390	721.851013	758.184998	738.866211	46.829979
206.820587	725.045959	758.259277	731.138855	18.344736
207.197769	728.761169	754.915710	738.271790	36.363171
207.574921	732.773438	757.962097	731.138733	-6.489843
207.952042	733.219299	761.454285	732.104675	-3.947670
208.329147	719.101746	760.488342	723.188416	9.874380
208.706223	758.482178	803.212402	761.677246	7.142974
209.083267	762.717468	802.915222	761.157043	-3.881871
209.460297	767.547119	795.782166	761.900085	-20.000086
209.837280	729.132629	745.702148	723.039795	-36.771343
210.214264	718.061523	745.553528	720.662109	9.459427
210.591217	714.792236	749.045715	723.411316	25.162640
210.968124	715.981018	758.630798	728.835388	30.139359
211.345016	722.519714	766.432556	733.516418	25.042114
211.721893	724.971680	778.469666	736.711487	21.944391
212.098724	721.627991	778.469543	734.333801	22.353033
212.475555	712.860168	778.692566	732.179016	29.345503
212.852356	708.922180	769.850403	731.956116	37.805035
213.229126	712.117188	770.965027	734.185242	37.500195
213.605865	719.621826	762.048645	728.018066	19.789936
213.982590	725.120300	768.364441	728.018066	6.700945
214.359283	720.513489	757.590515	720.290527	-0.601347
214.735931	718.284424	757.218994	717.318420	-2.481094
215.112579	707.733459	751.274841	710.556885	6.484464
215.489197	701.343445	748.302734	715.460876	30.063129
215.865799	704.241211	744.216003	722.148132	44.795532
216.242355	718.284424	742.804260	725.120300	27.878963
216.618896	730.767273	749.417297	729.429871	-7.171049
216.995407	727.423645	758.184998	739.980774	40.821121
217.371902	721.702332	761.602844	736.562927	37.244122
217.748367	724.005676	764.352051	724.080078	0.184408
218.124802	723.039734	757.887695	710.408264	-36.247372
218.501236	722.593933	754.841309	713.603333	-27.880100
218.877609	714.197754	751.274841	723.708496	25.651266
219.253983	724.154297	754.767029	722.668274	-4.854264
219.630295	728.835449	757.590576	725.417480	-11.886467
220.006592	728.761047	758.927979	720.216309	-28.324852
220.382889	718.284363	751.126221	728.166687	30.090637
220.759140	717.169922	746.370850	729.875671	43.511459
221.135391	713.306152	746.965271	730.692932	51.655483
221.511581	715.906738	745.181946	729.652771	46.954517
221.887772	711.225586	747.931152	727.795166	45.141872
222.263931	717.764343	757.739197	731.436035	34.200729
222.640060	717.541321	772.599670	732.179016	26.585787
223.016159	724.748718	769.553223	731.064453	14.096205
223.392212	717.764343	758.556458	729.727051	29.326029
223.768265	719.324646	756.253113	730.470032	30.181013
224.144302	708.699402	757.293396	735.151062	54.434010
224.520294	707.807800	757.293396	736.339905	57.657394
224.896286	717.021301	761.528564	731.733215	33.055084
225.272217	722.965515	765.912415	726.754944	8.823521
225.648148	734.853943	771.336609	721.999512	-35.234352
226.024048	723.634094	767.695801	719.696106	-8.937439
226.399902	719.176025	770.370605	720.142029	1.886925
226.775772	702.235046	760.414063	715.906738	23.499352
227.151581	703.646790	756.401672	721.033508	32.957554
227.527374	703.721130	751.274841	718.210144	30.468735
227.903137	715.089355	760.636902	726.457703	24.959297
228.278870	718.433044	765.020813	726.160461	16.586794
228.654572	714.717957	763.609070	732.104736	35.562248
229.030273	711.002747	763.609070	729.950012	36.017086
229.405930	707.436279	760.636963	724.005676	31.145082
229.781555	708.402161	757.070374	719.696106	23.205999
230.157181	714.866516	755.807312	724.600098	23.774775
230.532761	711.597168	753.280945	729.429871	42.780918
230.908325	716.203918	762.568848	727.795166	25.000032
231.283859	715.089417	760.339783	731.064514	35.303799
231.659332	719.547546	759.671082	729.132568	23.888777
232.034821	715.535217	758.407898	731.956116	38.301544
232.410263	709.516663	755.732971	723.336975	29.903540
232.785690	702.978027	755.287109	715.535156	24.005638
233.161087	706.098816	748.377014	707.436218	3.163338
233.536469	708.773682	755.212891	710.854065	4.479799
233.911804	713.900574	747.411072	719.473328	16.629875
234.287140	713.751953	754.098328	721.182190	18.416121
234.662430	707.584778	751.943542	720.067627	28.140659
235.037704	703.795410	758.928040	728.612488	45.013412
235.412933	706.321594	760.339783	732.327637	48.143124
235.788162	715.906738	763.683411	724.971680	18.973572
236.163345	724.748779	773.416992	711.968689	-26.259624
236.538513	728.018066	774.977356	714.272034	-29.272234
236.913635	730.693054	774.531555	716.575439	-32.203690
237.288742	733.739441	767.844238	723.485596	-30.065697
237.663834	732.104736	759.373779	723.782776	-30.517977
238.038879	729.949951	753.058105	727.943665	-8.682158
238.413910	719.176025	747.039551	714.792175	-15.733293
238.788910	711.522888	746.593750	713.528992	5.720143
239.163879	712.191589	752.017822	715.460938	8.209032
239.538834	713.603333	758.259277	732.773438	42.928452
239.913757	722.445374	761.157043	744.067444	55.854141
240.288651	721.330872	759.150940	742.061218	54.813087
240.663528	720.290527	765.243713	735.151123	33.057938
241.038361	713.900574	773.491394	727.275085	22.443913
241.413177	710.111084	772.005310	731.807434	35.053917
241.787979	708.402161	763.980652	735.745605	49.197891
242.162735	710.556946	760.339661	726.977844	32.985142
242.537476	710.854187	761.602844	723.559875	25.036501
242.912170	719.993408	775.125977	725.640381	10.242535
243.286865	717.838623	773.342712	731.361633	24.363989
243.661514	715.980957	770.965027	724.897400	16.216412
244.036148	715.609558	767.472717	722.222473	12.750698
244.410751	718.878723	774.457275	723.262695	7.887885
244.785339	723.931396	775.125977	732.327637	16.400642
245.159882	714.346375	765.838135	727.200684	24.963818
245.534378	718.581604	760.488342	723.262695	11.170259
245.908890	720.290527	768.661621	716.352539	-8.141202
246.283356	720.290527	769.627625	725.863281	11.295261
246.657791	720.587830	765.243713	726.754883	13.810169
247.032196	718.061523	765.540955	730.618652	26.447514
247.406586	721.776672	764.797913	720.662109	-2.590727
247.780960	714.494934	769.627625	723.708496	16.711613
248.155289	714.494934	767.175598	720.810730	11.988832
248.529602	715.312317	774.011414	720.662048	9.113822
248.903870	719.770508	769.330383	721.553711	3.598078
249.278122	715.832336	759.671082	720.662109	11.017133
249.652344	715.535156	757.961975	723.337097	18.389172
250.026550	711.820068	763.906250	719.919128	15.549345
250.400711	717.764343	776.091980	725.640320	13.502993
250.774857	720.290588	769.999084	719.621765	-1.345491
251.148987	727.795227	771.113586	717.244141	-24.357079
251.523071	722.222473	764.426331	711.968567	-24.296135
251.897125	719.770447	771.039307	727.795105	15.652110
252.271164	710.705566	766.952637	725.789001	26.816393
252.645187	706.916077	769.330383	735.002441	44.999882
253.019165	703.126709	767.101318	717.912842	23.112501
253.393112	711.374268	776.091980	730.395691	29.391371
253.767044	715.980957	775.051758	717.392822	2.390124
254.140930	722.148132	772.376770	724.154297	3.994065
254.514801	718.878845	764.129211	725.714661	15.106652
254.888657	723.559875	768.958801	733.516418	21.931231
255.262466	722.296814	776.909241	733.367859	20.272026
255.636276	726.606384	776.537781	732.922058	12.648703
256.010010	723.782898	778.469543	732.179016	15.353142
256.383759	728.686768	769.627502	737.603088	21.778605
256.757446	720.216248	770.965027	733.070618	25.329418
257.131134	718.432922	764.872070	737.603088	41.280186
257.504791	709.591003	772.674011	733.590820	38.044819
257.878418	713.603271	777.503662	738.717590	39.302292
258.252014	725.714661	783.819397	734.556702	15.217419
258.625580	725.491760	782.853516	738.866211	23.315971
258.999115	723.485596	779.658508	733.144958	17.195766
259.372650	713.677673	777.206482	734.259460	32.397564
259.746124	715.238037	782.927734	729.132629	20.526894
260.119598	717.095520	791.695496	730.767273	18.326752
260.493042	725.640320	802.766602	724.451477	-1.541424
260.866425	730.098450	797.342468	726.829285	-4.861644
261.239838	732.476257	796.525146	719.176025	-20.765749
261.613159	721.256531	789.986572	721.553711	0.432388
261.986511	722.742493	800.240295	721.999573	-0.958634
262.359802	714.792175	795.930847	728.835388	17.307669
262.733063	716.575439	788.351868	728.092346	16.045528
263.106293	708.625061	780.995911	730.990173	30.903482
263.479523	711.671387	783.968018	733.144958	29.702036
263.852692	704.984192	789.020569	737.305908	38.461578
264.225861	710.333984	791.918396	730.618652	24.863411
264.598969	716.129639	793.181458	728.166687	15.622017
264.972076	722.296875	792.215637	730.544434	11.795917
265.345154	729.132629	795.262024	732.624817	5.280840
265.718201	726.829285	792.958679	731.510315	7.078592
266.091217	731.584534	803.286682	733.219238	2.279854
266.464203	731.435974	801.875000	738.866211	10.548466
266.837158	730.395691	803.286804	734.185242	5.198920
267.210114	724.079895	792.958679	736.191406	17.583805
267.583038	712.934570	788.054626	726.234802	17.705301
267.955902	711.151367	792.066956	727.572266	20.293863
268.328766	718.135742	808.859375	723.559875	5.978744
268.701569	716.129578	813.243225	721.702332	5.738384
269.074371	711.522888	814.729309	726.086121	14.110782
269.447144	708.402161	802.543701	727.572205	20.363003
269.819885	715.460938	807.596375	728.389587	14.032223
270.192596	723.337097	802.915222	724.080017	0.933573
270.565277	723.262695	816.809814	719.027405	-4.527441
270.937927	719.398926	818.147278	719.398926	0.000000
271.310577	717.615723	820.004883	719.398926	1.741594
271.683136	719.398926	820.970886	718.730225	-0.658352
272.055725	724.154297	819.261902	726.457703	2.421894
272.428284	729.206848	829.812805	726.754883	-2.437197
272.800812	725.714661	824.463074	722.148132	-3.611732
273.173279	721.330811	831.670410	722.742493	1.279397
273.545776	712.860291	826.989258	722.965515	8.854216
273.918152	711.448547	827.509460	737.305847	22.279078
274.290558	712.562988	822.308167	732.178955	17.874104
274.662964	713.231750	828.846863	736.785828	20.372835
275.035278	716.055359	826.394836	731.881775	14.343385
275.407593	712.488770	829.738464	728.538086	13.688152
275.779907	714.569275	833.082092	728.166687	11.473369
276.152161	708.847961	840.958191	723.708496	11.248588
276.524384	716.872620	842.147034	724.080078	5.753336
276.896606	717.244141	838.283386	722.073792	3.990153
277.268799	722.593994	847.273926	721.479431	-0.893939
277.640930	717.615723	853.366699	727.126404	7.005976
278.013031	727.720886	857.750671	725.491760	-1.714319
278.385162	729.949951	852.177917	726.011902	-3.221889
278.757233	731.881836	851.211914	717.615723	-11.955170
279.129272	721.405090	852.475098	719.621887	-1.360497
279.501282	723.857117	851.583496	717.987122	-4.595758
279.873230	727.052063	845.713562	726.606262	-0.375691
280.245178	732.550537	854.184082	721.850891	-8.796624
280.617126	722.371094	863.546204	722.965515	0.421053
280.988983	714.866455	879.967102	720.439209	3.375368
281.360870	713.826233	889.254883	730.470032	9.487503
281.732697	711.077087	898.096924	725.566101	7.747314
282.104492	722.965515	902.852295	727.572205	2.560883
282.476288	723.782715	899.731628	720.364929	-1.942487
282.848053	736.488586	900.325989	730.693054	-3.537368
283.219757	731.213074	909.985413	733.144958	1.080640
283.591461	733.070618	924.251465	737.008728	2.059887
283.963135	728.835388	929.601257	735.225403	3.182819
284.334747	730.767273	930.418640	733.813721	1.525884
284.706360	724.600098	924.623047	735.374023	5.386345
285.077942	727.943665	929.007019	732.179016	2.106476
285.449524	722.519714	935.842773	731.733215	4.319036
285.821014	722.371094	932.573425	723.262695	0.424163
286.192535	716.649719	941.638367	727.497986	4.821695
286.563995	718.210144	938.814880	723.708496	2.492400
286.935425	723.188293	948.251282	729.504150	2.806262
287.306824	726.383484	938.443359	725.194580	-0.560645
287.678223	722.222473	938.963440	730.544373	3.839560
288.049561	720.885010	944.610535	730.693054	4.383963
288.420898	717.615662	948.399902	735.076843	7.566020
288.792145	722.891113	953.675476	726.903503	1.738588
289.163452	722.965515	951.372070	726.680664	1.626551
289.534668	725.491760	963.632019	719.473206	-2.527315
289.905914	719.324707	972.845520	727.052063	3.048016
290.277039	727.943787	987.928955	721.999451	-2.286413
290.648193	739.089172	995.210632	735.968445	-1.218456
291.019318	737.677429	1002.195068	733.144958	-1.713485
291.390381	725.194580	1004.424133	734.110901	3.193187
291.761475	713.157532	1006.430359	720.662109	2.558907
292.132507	716.278259	1011.631531	713.826172	-0.830222
292.503510	713.900574	1015.198059	717.169861	1.085070
292.874481	718.284363	1024.337280	735.448425	5.608201
293.245422	723.188416	1017.872986	739.534973	5.547137
293.616364	727.720886	1024.634644	741.912781	4.779804
293.987213	723.708496	1019.953430	730.767273	2.382750
294.358093	723.114075	1037.043091	729.578430	2.059177
294.728943	720.810730	1046.182251	724.897278	1.255964
295.099731	717.095520	1072.188354	723.039734	1.673989
295.470490	709.219482	1087.717529	721.107910	3.140948
295.841248	709.442383	1092.250122	725.417480	4.173139
296.211975	710.482605	1101.314941	720.216248	2.490491
296.582642	720.959290	1111.420044	723.485535	0.646991
296.953308	722.148132	1133.710938	724.674500	0.613847
297.323883	723.188416	1133.413696	724.971619	0.434689
297.694519	718.358704	1148.274170	728.389587	2.333222
298.065063	714.494934	1153.698242	731.807434	3.941796
298.435608	717.764343	1157.710693	730.990173	3.006237
298.806122	718.061523	1144.782104	726.606262	2.002420
299.176575	726.309082	1126.503540	719.621826	-1.671002
299.547028	723.262695	1113.277710	721.702332	-0.400078
299.917450	715.089355	1100.274780	721.479431	1.658961
300.287872	709.219543	1100.274780	727.126465	4.579128
300.658234	713.454773	1107.704956	729.132629	3.976626
301.028564	720.439209	1107.184814	737.380188	4.380394
301.398865	724.228577	1106.887573	729.281250	1.320411
301.769135	722.222473	1100.720459	731.138733	2.355695
302.139374	726.606384	1109.042358	726.234863	-0.097146
302.509583	724.154358	1119.370483	726.606262	0.620396
302.879791	721.702332	1125.166138	723.708496	0.497235
303.249939	713.974854	1123.680054	717.838623	0.943061
303.620087	711.448547	1116.769897	714.420593	0.733257
303.990173	717.912903	1117.364258	715.832336	-0.520856
304.360260	724.005676	1121.079468	728.315247	1.085332
304.730286	726.011902	1127.618164	732.550476	1.628106
305.100281	714.717834	1132.522095	734.259521	4.677235
305.470276	710.705566	1134.379517	730.470032	4.665018
305.840179	710.705566	1140.398071	736.562927	6.017643
306.210144	713.677551	1148.125610	735.151123	4.942725
306.579987	717.838562	1160.014038	743.695984	5.847774
306.949890	713.157532	1164.472168	741.095398	6.190330
307.319702	718.358704	1171.308105	743.547363	5.561032
307.689484	717.169861	1182.899292	732.922058	3.382264
308.059265	725.045959	1204.447144	735.745544	2.231864
308.429016	722.593933	1220.348022	737.380188	2.970594
308.798737	721.776672	1239.592285	746.890930	4.850039
309.168396	720.364929	1248.434204	740.055115	3.728713
309.538055	718.358704	1267.158569	730.618652	2.233956
309.907684	719.844727	1272.359741	720.141907	0.053787
310.277313	714.494934	1280.904419	721.330811	1.206879
310.646851	719.621887	1293.164551	726.309143	1.165956
311.016388	713.974854	1309.808350	729.949951	2.681134
311.385895	717.838562	1319.839233	732.327637	2.406820
311.755371	714.717834	1317.015747	735.225403	3.404888
312.124817	720.067627	1321.473877	732.179016	2.013845
312.494232	720.885010	1326.823730	735.596985	2.427964
312.863617	719.250305	1321.251099	732.922058	2.271052
313.232971	724.600098	1317.461670	730.470032	0.990102
313.602295	726.234802	1308.099487	722.965515	-0.561864
313.971619	724.154297	1312.483276	715.683838	-1.439749
314.340820	721.627991	1308.025024	721.628113	0.000021
314.710083	721.850891	1326.154907	729.949951	1.340229
315.079285	722.222412	1347.479858	735.819824	2.174690
315.448486	725.566101	1369.696289	730.618652	0.784399
315.817596	716.649719	1372.817017	731.956055	2.332688
316.186707	720.439148	1360.408569	737.157288	2.612334
316.555786	706.841797	1348.445801	742.952881	5.628251
316.924866	712.042969	1333.139526	732.253357	3.253985
317.293884	709.962463	1328.978516	728.612488	3.012850
317.662872	716.575439	1323.182983	723.782898	1.188158
318.031830	714.569336	1328.532593	729.949951	2.505136
318.400757	719.101746	1335.071411	724.377258	0.856457
318.769684	719.027344	1350.303345	722.222473	0.506138
319.138550	720.513428	1358.996704	719.101746	-0.221099
319.507416	716.426819	1368.878906	728.240967	1.810730
319.876190	710.259705	1362.191650	731.807556	3.305230
320.244995	711.597168	1369.399048	739.832214	4.292333
320.613770	716.946960	1364.643677	736.711487	3.051509
320.982483	727.349304	1370.959473	732.624817	0.819675
321.351166	723.782776	1366.798462	721.850891	-0.300441
321.719818	719.473328	1366.872681	717.244141	-0.344330
322.088440	714.123474	1370.513672	724.377197	1.562138
322.457062	716.426819	1381.287598	729.429871	1.955756
322.825623	717.244141	1389.237915	735.374023	2.697924
323.194183	714.643555	1404.692993	736.637207	3.187258
323.562653	708.922302	1416.358398	736.042786	3.833630
323.931183	708.773682	1445.559448	739.089172	4.114560
324.299591	714.569336	1478.178223	735.002502	2.675868
324.668060	718.581726	1511.020142	730.767273	1.537728
325.036407	712.414490	1551.589355	721.405090	1.071362
325.404755	708.625000	1563.255005	721.850891	1.547558
