Jaz Data File
++++++++++++++++++++++++++++++++++++
Date: Fri Jun 04 17:07:22 2021
User: jaz
Dark Spectrum Present: Yes
Reference Spectrum Present: Yes
Processed Spectrum Present: Yes
Spectrometers: JAZA3586
Integration Time (usec): 120000 (JAZA3586)
Spectra Averaged: 10 (JAZA3586)
Boxcar Smoothing: 1 (JAZA3586)
Correct for Electrical Dark: No (JAZA3586)
Strobe/Lamp Enabled: Yes (JAZA3586)
Correct for Detector Non-linearity: No (JAZA3586)
Correct for Stray Light: No (JAZA3586)
Number of Pixels in Processed Spectrum: 2048
>>>>>Begin Processed Spectral Data<<<<<
W	D	R	S	P
191.335022	0.000000	0.000000	0.000000	0.000000
191.713211	229.818314	229.892624	225.360153	-5999.383789
192.091385	460.082428	468.552979	453.692383	-75.438370
192.469528	686.408508	696.142273	685.591125	-8.397396
192.847641	692.724304	707.659180	692.055481	-4.478265
193.225739	702.606506	714.197754	708.030579	46.794552
193.603790	719.547546	727.423584	721.405090	23.584753
193.981842	727.869446	730.915833	741.764099	456.102753
194.359863	736.340027	734.408020	742.061279	-296.130035
194.737854	738.791992	737.900208	743.695984	-549.907593
195.115829	739.163513	739.312012	734.259521	-3302.383789
195.493774	740.203796	734.631042	732.847717	132.000793
195.871704	741.615479	730.247131	732.773438	77.777718
196.249603	741.912659	727.200745	742.729980	-5.555510
196.627457	738.346191	728.166687	751.200500	-126.276375
197.005310	736.934387	731.658875	752.463684	-294.365631
197.383133	741.169678	738.346130	741.838379	-23.683016
197.760910	750.383118	746.445129	739.906555	266.038452
198.138687	758.556458	749.268738	739.163513	208.802002
198.516449	765.095154	740.203674	744.216064	83.880470
198.894180	755.064270	727.052185	732.996277	78.780258
199.271866	748.451355	730.544373	729.429871	106.223839
199.649536	735.819824	735.076843	726.309082	1280.078857
200.027191	733.144958	743.324524	739.312073	60.583275
200.404816	728.909668	743.547363	740.055115	76.142090
200.782410	730.544373	754.989929	739.237793	35.562374
201.159988	727.200684	768.513000	731.436035	10.252031
201.537537	725.566101	774.308594	734.928223	19.207310
201.915070	721.702332	775.051758	730.618652	16.713058
202.292557	726.606262	771.930969	729.504150	6.393617
202.670029	730.470032	773.194153	731.138733	1.565161
203.047485	734.259460	771.633789	733.293640	-2.584181
203.424911	728.389587	768.215820	732.476257	10.261251
203.802292	722.296692	763.163269	726.680664	10.727525
204.179688	716.872742	763.014648	728.315247	24.798510
204.557037	725.640381	759.819641	728.909668	9.565120
204.934357	727.052063	759.522461	726.086182	-2.974652
205.311661	731.658875	760.934143	732.624817	3.299517
205.688934	723.188416	759.225159	736.042725	35.670010
206.066177	728.389648	764.054871	738.420410	28.124769
206.443390	721.851013	758.184998	736.042725	39.059055
206.820587	725.045959	758.259277	731.435974	19.239315
207.197769	728.761169	754.915710	738.197510	36.079166
207.574921	732.773438	757.962097	731.733154	-4.129966
207.952042	733.219299	761.454285	732.847717	-1.316034
208.329147	719.101746	760.488342	729.429871	24.955240
208.706223	758.482178	803.212402	770.667908	27.242720
209.083267	762.717468	802.915222	766.135437	8.502885
209.460297	767.547119	795.782166	764.426453	-11.052458
209.837280	729.132629	745.702148	725.417480	-22.421585
210.214264	718.061523	745.553528	721.999512	14.324122
210.591217	714.792236	749.045715	716.129639	3.904428
210.968124	715.981018	758.630798	717.838562	4.355342
211.345016	722.519714	766.432556	730.395691	17.935474
211.721893	724.971680	778.469666	731.213074	11.666596
212.098724	721.627991	778.469543	728.092285	11.372480
212.475555	712.860168	778.692566	726.457703	20.654776
212.852356	708.922180	769.850403	729.355530	33.536755
213.229126	712.117188	770.965027	729.355530	29.293076
213.605865	719.621826	762.048645	720.885010	2.977323
213.982590	725.120300	768.364441	718.878845	-14.433065
214.359283	720.513489	757.590515	717.244141	-8.817719
214.735931	718.284424	757.218994	716.798340	-3.816875
215.112579	707.733459	751.274841	714.049133	14.504992
215.489197	701.343445	748.302734	711.894348	22.468191
215.865799	704.241211	744.216003	714.123474	24.721237
216.242355	718.284424	742.804260	710.482605	-31.818398
216.618896	730.767273	749.417297	709.888184	-111.952072
216.995407	727.423645	758.184998	704.241211	-75.362206
217.371902	721.702332	761.602844	707.584778	-35.381886
217.748367	724.005676	764.352051	715.015076	-22.283541
218.124802	723.039734	757.887695	719.324646	-10.660847
218.501236	722.593933	754.841309	719.770447	-8.755709
218.877609	714.197754	751.274841	714.346375	0.400842
219.253983	724.154297	754.767029	720.810730	-10.922145
219.630295	728.835449	757.590576	721.628113	-25.064526
220.006592	728.761047	758.927979	718.581604	-33.743717
220.382889	718.284363	751.126221	720.290588	6.108746
220.759140	717.169922	746.370850	729.132629	40.966873
221.135391	713.306152	746.965271	735.448425	65.783875
221.511581	715.906738	745.181946	723.188416	24.873188
221.887772	711.225586	747.931152	712.711731	4.048827
222.263931	717.764343	757.739197	720.810730	7.620758
222.640060	717.541321	772.599670	731.361633	25.101212
223.016159	724.748718	769.553223	735.894226	24.875864
223.392212	717.764343	758.556458	722.891113	12.568042
223.768265	719.324646	756.253113	723.039734	10.060227
224.144302	708.699402	757.293396	719.473206	22.171061
224.520294	707.807800	757.293396	722.445374	29.579462
224.896286	717.021301	761.528564	730.841553	31.051676
225.272217	722.965515	765.912415	730.172852	16.781971
225.648148	734.853943	771.336609	742.209900	20.162882
226.024048	723.634094	767.695801	733.367859	22.091211
226.399902	719.176025	770.370605	740.278015	41.219189
226.775772	702.235046	760.414063	729.429749	46.743145
227.151581	703.646790	756.401672	727.646545	45.492958
227.527374	703.721130	751.274841	722.593933	39.687340
227.903137	715.089355	760.636902	726.457703	24.959297
228.278870	718.433044	765.020813	730.990173	26.953703
228.654572	714.717957	763.609070	737.825989	47.264278
229.030273	711.002747	763.609070	729.949951	36.016972
229.405930	707.436279	760.636963	722.296875	27.933092
229.781555	708.402161	757.070374	715.386658	14.351251
230.157181	714.866516	755.807312	720.216309	13.067143
230.532761	711.597168	753.280945	719.398926	18.716534
230.908325	716.203918	762.568848	718.953125	5.929496
231.283859	715.089417	760.339783	724.971680	21.839079
231.659332	719.547546	759.671082	732.847717	33.148052
232.034821	715.535217	758.407898	737.380188	50.953125
232.410263	709.516663	755.732971	722.296692	27.652639
232.785690	702.978027	755.287109	713.826172	20.738548
233.161087	706.098816	748.377014	713.157471	16.695732
233.536469	708.773682	755.212891	721.033630	26.399994
233.911804	713.900574	747.411072	719.919006	17.959843
234.287140	713.751953	754.098328	720.364929	16.390509
234.662430	707.584778	751.943542	719.696106	27.303123
235.037704	703.795410	758.928040	723.262695	35.309917
235.412933	706.321594	760.339783	719.324707	24.071730
235.788162	715.906738	763.683411	717.392761	3.110353
236.163345	724.748779	773.416992	721.330811	-7.023000
236.538513	728.018066	774.977356	724.228699	-8.069474
236.913635	730.693054	774.531555	729.801453	-2.033832
237.288742	733.739441	767.844238	725.417480	-24.401144
237.663834	732.104736	759.373779	722.148132	-36.512482
238.038879	729.949951	753.058105	723.336975	-28.617500
238.413910	719.176025	747.039551	725.640381	23.200064
238.788910	711.522888	746.593750	728.315247	47.881226
239.163879	712.191589	752.017822	723.188293	27.611710
239.538834	713.603333	758.259277	718.432922	10.815110
239.913757	722.445374	761.157043	718.581604	-9.980891
240.288651	721.330872	759.150940	720.290527	-2.750773
240.663528	720.290527	765.243713	723.262695	6.611696
241.038361	713.900574	773.491394	717.095520	5.361474
241.413177	710.111084	772.005310	712.563171	3.961739
241.787979	708.402161	763.980652	716.649719	14.839479
242.162735	710.556946	760.339661	724.674500	28.358345
242.537476	710.854187	761.602844	731.361633	40.409832
242.912170	719.993408	775.125977	732.624817	22.910975
243.286865	717.838623	773.342712	736.414246	33.467125
243.661514	715.980957	770.965027	732.847717	30.675722
244.036148	715.609558	767.472717	732.030457	31.661970
244.410751	718.878723	774.457275	723.039856	7.486940
244.785339	723.931396	775.125977	726.160461	4.354104
245.159882	714.346375	765.838135	723.857117	18.470415
245.534378	718.581604	760.488342	725.045959	15.425575
245.908890	720.290527	768.661621	723.188293	5.990698
246.283356	720.290527	769.627625	725.194519	9.939765
246.657791	720.587830	765.243713	725.343079	10.648650
247.032196	718.061523	765.540955	724.822998	14.240850
247.406586	721.776672	764.797913	720.216309	-3.626961
247.780960	714.494934	769.627625	717.764343	5.930074
248.155289	714.494934	767.175598	721.107910	12.552947
248.529602	715.312317	774.011414	719.844727	7.721430
248.903870	719.770508	769.330383	724.080078	8.695684
249.278122	715.832336	759.671082	721.182312	12.203761
249.652344	715.535156	757.961975	722.742493	16.987690
250.026550	711.820068	763.906250	725.566101	26.390940
250.400711	717.764343	776.091980	726.903503	15.668662
250.774857	720.290588	769.999084	730.024231	19.581446
251.148987	727.795227	771.113586	727.126465	-1.543831
251.523071	722.222473	764.426331	725.640381	8.098567
251.897125	719.770447	771.039307	736.860107	33.333412
252.271164	710.705566	766.952637	733.516418	40.554737
252.645187	706.916077	769.330383	733.665039	42.857101
253.019165	703.126709	767.101318	717.987122	23.228611
253.393112	711.374268	776.091980	725.194519	21.354666
253.767044	715.980957	775.051758	723.634277	12.956182
254.140930	722.148132	772.376770	730.693054	17.012053
254.514801	718.878845	764.129211	727.943787	20.032858
254.888657	723.559875	768.958801	732.847717	20.458286
255.262466	722.296814	776.909241	721.107910	-2.176984
255.636276	726.606384	776.537781	722.371094	-8.482220
256.010010	723.782898	778.469543	716.501160	-13.315387
256.383759	728.686768	769.627502	725.417480	-7.985414
256.757446	720.216248	770.965027	719.250305	-1.903381
257.131134	718.432922	764.872070	716.501160	-4.159772
257.504791	709.591003	772.674011	719.250305	15.312050
257.878418	713.603271	777.503662	718.878845	8.255934
258.252014	725.714661	783.819397	723.857117	-3.196889
258.625580	725.491760	782.853516	720.587830	-8.549129
258.999115	723.485596	779.658508	719.398926	-7.275161
259.372650	713.677673	777.206482	718.061523	6.900570
259.746124	715.238037	782.927734	716.426819	1.756223
260.119598	717.095520	791.695496	719.398926	3.087676
260.493042	725.640320	802.766602	720.885071	-6.165536
260.866425	730.098450	797.342468	721.330811	-13.038542
261.239838	732.476257	796.525146	721.330872	-17.401373
261.613159	721.256531	789.986572	718.953125	-3.351381
261.986511	722.742493	800.240295	712.340149	-13.422760
262.359802	714.792175	795.930847	715.460876	0.824146
262.733063	716.575439	788.351868	714.792175	-2.484470
263.106293	708.625061	780.995911	717.838562	12.730956
263.479523	711.671387	783.968018	719.473206	10.791400
263.852692	704.984192	789.020569	723.559875	22.104336
264.225861	710.333984	791.918396	728.092346	21.766857
264.598969	716.129639	793.181458	725.343201	11.957618
264.972076	722.296875	792.215637	721.256531	-1.487933
265.345154	729.132629	795.262024	714.643555	-21.910189
265.718201	726.829285	792.958679	709.516663	-26.179918
266.091217	731.584534	803.286682	722.816895	-12.227861
266.464203	731.435974	801.875000	733.144958	2.426190
266.837158	730.395691	803.286804	739.163391	12.028490
267.210114	724.079895	792.958679	724.154297	0.108019
267.583038	712.934570	788.054626	720.662109	10.286919
267.955902	711.151367	792.066956	718.358704	8.907228
268.328766	718.135742	808.859375	721.999512	4.258835
268.701569	716.129578	813.243225	721.033630	5.049808
269.074371	711.522888	814.729309	720.290527	8.495246
269.447144	708.402161	802.543701	716.426819	8.524035
269.819885	715.460938	807.596375	717.838623	2.580642
270.192596	723.337097	802.915222	727.275085	4.948581
270.565277	723.262695	816.809814	743.101501	21.207287
270.937927	719.398926	818.147278	745.181946	26.109823
271.310577	717.615723	820.004883	742.358582	24.165506
271.683136	719.398926	820.970886	732.624817	13.021203
272.055725	724.154297	819.261902	727.349304	3.359360
272.428284	729.206848	829.812805	718.953125	-10.191964
272.800812	725.714661	824.463074	719.324646	-6.471005
273.173279	721.330811	831.670410	716.203918	-4.646466
273.545776	712.860291	826.989258	717.690002	4.231802
273.918152	711.448547	827.509460	721.628113	8.770882
274.290558	712.562988	822.308167	721.330811	7.989255
274.662964	713.231750	828.846863	717.764343	3.920415
275.035278	716.055359	826.394836	717.095520	0.942692
275.407593	712.488770	829.738464	727.126465	12.484207
275.779907	714.569275	833.082092	734.185242	16.551767
276.152161	708.847961	840.958191	727.052063	13.779479
276.524384	716.872620	842.147034	724.971619	6.465006
276.896606	717.244141	838.283386	727.349365	8.348718
277.268799	722.593994	847.273926	730.692871	6.495734
277.640930	717.615723	853.366699	725.937561	6.130224
278.013031	727.720886	857.750671	720.216248	-5.771477
278.385162	729.949951	852.177917	717.095520	-10.516768
278.757233	731.881836	851.211914	718.655945	-11.083451
279.129272	721.405090	852.475098	711.597168	-7.482965
279.501282	723.857117	851.583496	711.745850	-9.482197
279.873230	727.052063	845.713562	706.247375	-17.532804
280.245178	732.550537	854.184082	710.408386	-18.203983
280.617126	722.371094	863.546204	708.550781	-9.789482
280.988983	714.866455	879.967102	712.488770	-1.440143
281.360870	713.826233	889.254883	721.256531	4.235510
281.732697	711.077087	898.096924	723.039734	6.396459
282.104492	722.965515	902.852295	727.869385	2.726087
282.476288	723.782715	899.731628	715.832336	-4.518572
282.848053	736.488586	900.325989	716.946960	-11.927451
283.219757	731.213074	909.985413	708.699402	-12.593488
283.591461	733.070618	924.251465	722.148132	-5.713169
283.963135	728.835388	929.601257	711.299988	-8.734254
284.334747	730.767273	930.418640	719.176025	-5.805744
284.706360	724.600098	924.623047	713.751953	-5.423450
285.077942	727.943665	929.007019	727.646545	-0.147774
285.449524	722.519714	935.842773	723.559875	0.487599
285.821014	722.371094	932.573425	720.662109	-0.813019
286.192535	716.649719	941.638367	716.649719	0.000000
286.563995	718.210144	938.814880	723.634216	2.458729
286.935425	723.188293	948.251282	735.002441	5.249263
287.306824	726.383484	938.443359	739.014832	5.956501
287.678223	722.222473	938.963440	733.070618	5.005120
288.049561	720.885010	944.610535	725.194580	1.926276
288.420898	717.615662	948.399902	718.953125	0.579530
288.792145	722.891113	953.675476	718.507324	-1.899517
289.163452	722.965515	951.372070	713.083252	-4.326611
289.534668	725.491760	963.632019	712.117371	-5.616182
289.905914	719.324707	972.845520	712.711731	-2.608455
290.277039	727.943787	987.928955	721.702332	-2.400697
290.648193	739.089172	995.210632	730.767273	-3.249200
291.019318	737.677429	1002.195068	725.863281	-4.466299
291.390381	725.194580	1004.424133	722.445313	-0.984590
291.761475	713.157532	1006.430359	712.414490	-0.253362
292.132507	716.278259	1011.631531	715.015076	-0.427686
292.503510	713.900574	1015.198059	711.076965	-0.937150
292.874481	718.284363	1024.337280	729.652771	3.714524
293.245422	723.188416	1017.872986	733.813660	3.605633
293.616364	727.720886	1024.634644	739.014893	3.803800
293.987213	723.708496	1019.953430	729.206848	1.856016
294.358093	723.114075	1037.043091	728.240967	1.633137
294.728943	720.810730	1046.182251	729.578430	2.694674
295.099731	717.095520	1072.188354	724.823059	2.176203
295.470490	709.219482	1087.717529	727.943787	4.947001
295.841248	709.442383	1092.250122	726.680664	4.503117
296.211975	710.482605	1101.314941	734.779602	6.216732
296.582642	720.959290	1111.420044	737.974670	4.357770
296.953308	722.148132	1133.710938	731.807556	2.347011
297.323883	723.188416	1133.413696	726.606384	0.833193
297.694519	718.358704	1148.274170	718.730225	0.086417
298.065063	714.494934	1153.698242	725.937561	2.605314
298.435608	717.764343	1157.710693	725.120300	1.672012
298.806122	718.061523	1144.782104	728.612488	2.472570
299.176575	726.309082	1126.503540	723.931458	-0.594117
299.547028	723.262695	1113.277710	722.148132	-0.285774
299.917450	715.089355	1100.274780	714.346375	-0.192889
300.287872	709.219543	1100.274780	713.008972	0.969026
300.658234	713.454773	1107.704956	717.764343	1.093105
301.028564	720.439209	1107.184814	723.337097	0.749301
301.398865	724.228577	1106.887573	727.943787	0.970893
301.769135	722.222473	1100.720459	730.321472	2.139773
302.139374	726.606384	1109.042358	735.522644	2.331439
302.509583	724.154358	1119.370483	736.860046	3.214871
302.879791	721.702332	1125.166138	731.213074	2.357273
303.249939	713.974854	1123.680054	726.829163	3.137453
303.620087	711.448547	1116.769897	726.011902	3.593039
303.990173	717.912903	1117.364258	729.875671	2.994800
304.360260	724.005676	1121.079468	733.665039	2.432637
304.730286	726.011902	1127.618164	738.569031	3.126726
305.100281	714.717834	1132.522095	744.290344	7.078078
305.470276	710.705566	1134.379517	744.587463	7.997163
305.840179	710.705566	1140.398071	743.398682	7.608491
306.210144	713.677551	1148.125610	734.556641	4.805889
306.579987	717.838562	1160.014038	728.018066	2.302141
306.949890	713.157532	1164.472168	721.479431	1.843924
307.319702	718.358704	1171.308105	725.343079	1.541977
307.689484	717.169861	1182.899292	730.618652	2.887683
308.059265	725.045959	1204.447144	738.048889	2.712327
308.429016	722.593933	1220.348022	734.779602	2.448130
308.798737	721.776672	1239.592285	729.652771	1.521024
309.168396	720.364929	1248.434204	725.343262	0.942742
309.538055	718.358704	1267.158569	718.433044	0.013546
309.907684	719.844727	1272.359741	722.668274	0.511035
310.277313	714.494934	1280.904419	717.244141	0.485374
310.646851	719.621887	1293.164551	724.971680	0.932763
311.016388	713.974854	1309.808350	727.720886	2.307026
311.385895	717.838562	1319.839233	733.888000	2.666017
311.755371	714.717834	1317.015747	731.733154	2.825067
312.124817	720.067627	1321.473877	729.355530	1.544364
312.494232	720.885010	1326.823730	733.070618	2.011030
312.863617	719.250305	1321.251099	733.367859	2.345105
313.232971	724.600098	1317.461670	731.510315	1.165570
313.602295	726.234802	1308.099487	728.018066	0.306474
313.971619	724.154297	1312.483276	729.355469	0.884058
314.340820	721.627991	1308.025024	724.154358	0.430829
314.710083	721.850891	1326.154907	727.943787	1.008250
315.079285	722.222412	1347.479858	724.971680	0.439702
315.448486	725.566101	1369.696289	736.860107	1.753373
315.817596	716.649719	1372.817017	731.510254	2.264748
316.186707	720.439148	1360.408569	738.717590	2.856143
316.555786	706.841797	1348.445801	739.163391	5.037623
316.924866	712.042969	1333.139526	740.352356	4.557969
317.293884	709.962463	1328.978516	738.866272	4.669315
317.662872	716.575439	1323.182983	727.423645	1.788340
318.031830	714.569336	1328.532593	727.869446	2.166271
318.400757	719.101746	1335.071411	731.361633	1.990340
318.769684	719.027344	1350.303345	737.231628	2.883728
319.138550	720.513428	1358.996704	739.163391	2.920979
319.507416	716.426819	1368.878906	734.259460	2.733173
319.876190	710.259705	1362.191650	731.807434	3.305212
320.244995	711.597168	1369.399048	738.346130	4.066416
320.613770	716.946960	1364.643677	739.460693	3.475968
320.982483	727.349304	1370.959473	739.312073	1.858698
321.351166	723.782776	1366.798462	724.600159	0.127117
321.719818	719.473328	1366.872681	725.120300	0.872255
322.088440	714.123474	1370.513672	720.810608	1.018774
322.457062	716.426819	1381.287598	725.640381	1.385788
322.825623	717.244141	1389.237915	733.962219	2.487832
323.194183	714.643555	1404.692993	738.791992	3.499523
323.562653	708.922302	1416.358398	735.745422	3.791596
323.931183	708.773682	1445.559448	727.274963	2.511080
324.299591	714.569336	1478.178223	727.052063	1.634702
324.668060	718.581726	1511.020142	724.525818	0.750101
325.036407	712.414490	1551.589355	719.993347	0.903132
