Jaz Data File
++++++++++++++++++++++++++++++++++++
Date: Fri Jun 04 17:05:00 2021
User: jaz
Dark Spectrum Present: Yes
Reference Spectrum Present: Yes
Processed Spectrum Present: Yes
Spectrometers: JAZA3586
Integration Time (usec): 122000 (JAZA3586)
Spectra Averaged: 10 (JAZA3586)
Boxcar Smoothing: 1 (JAZA3586)
Correct for Electrical Dark: No (JAZA3586)
Strobe/Lamp Enabled: Yes (JAZA3586)
Correct for Detector Non-linearity: No (JAZA3586)
Correct for Stray Light: No (JAZA3586)
Number of Pixels in Processed Spectrum: 2048
>>>>>Begin Processed Spectral Data<<<<<
W	D	R	S	P
191.335022	0.000000	0.000000	0.000000	0.000000
191.713211	230.487015	226.177490	227.217728	75.861900
192.091385	464.540619	461.122711	462.237213	67.392273
192.469528	699.262878	689.975098	693.987488	56.799259
192.847641	705.429993	700.228821	701.417664	77.142792
193.225739	712.637390	707.064697	709.739563	52.000481
193.603790	720.067688	719.101746	721.628113	-161.544296
193.981842	730.247070	730.024231	727.795166	1100.301270
194.359863	731.956055	737.157288	730.024231	-37.141651
194.737854	743.324402	750.606140	735.076843	-113.263596
195.115829	747.708252	749.045715	737.008728	-799.986328
195.493774	751.200500	747.485352	745.107666	163.999741
195.871704	747.262451	748.451355	743.844543	-287.483948
196.249603	749.342957	748.897156	757.441895	-1816.716919
196.627457	749.342957	748.599915	753.132385	-509.988495
197.005310	751.051941	736.711487	753.801086	-19.170561
197.383133	746.073547	736.488586	746.965271	-9.303362
197.760910	752.835144	744.438965	751.349121	17.698799
198.138687	747.039551	751.572083	757.962097	240.981140
198.516449	743.695862	751.274902	758.407898	194.114761
198.894180	736.042725	739.906555	748.451355	321.148407
199.271866	747.039551	737.677429	740.500916	69.841385
199.649536	740.575256	732.327637	737.454529	37.837917
200.027191	736.488586	738.049011	740.649475	266.651031
200.404816	724.154297	736.191406	740.426575	135.184265
200.782410	728.018066	753.726807	741.169617	51.155949
201.159988	731.807434	764.575012	746.222229	43.991028
201.537537	730.395752	777.132141	751.869202	45.945889
201.915070	730.172852	772.450989	757.664856	65.026527
202.292557	730.395752	769.999084	754.692688	61.350735
202.670029	734.036560	770.593506	751.126160	46.747887
203.047485	739.089111	774.828796	741.615417	7.068630
203.424911	743.027161	773.862854	743.918762	2.891459
203.802292	745.850769	771.782410	737.974609	-30.372778
204.179688	744.067383	772.079590	745.181946	3.978848
204.557037	738.643372	773.268372	743.695862	14.592030
204.934357	734.631042	775.125977	742.507080	19.449440
205.311661	729.727051	779.138367	737.677429	16.090199
205.688934	724.377197	775.200256	731.881836	14.766208
206.066177	722.965515	764.872253	735.671204	30.318962
206.443390	727.126465	762.494446	731.733215	13.025201
206.820587	730.098572	770.519226	736.042786	14.705882
207.197769	727.052063	775.868958	747.411072	41.704842
207.574921	730.990173	770.965027	756.253113	63.197079
207.952042	729.058289	761.602844	750.457520	65.753639
208.329147	729.355469	759.893860	739.906494	34.550037
208.706223	763.980530	802.617920	774.605896	27.500217
209.083267	763.089050	805.664368	782.036133	44.502506
209.460297	765.466614	806.630371	780.698730	37.003708
209.837280	723.337097	754.172607	742.135559	60.963680
210.214264	721.330872	751.497742	741.243958	66.009781
210.591217	715.163757	755.955872	735.894226	50.819794
210.968124	718.730225	770.147705	737.083008	35.693665
211.345016	724.525879	775.571777	736.637207	23.726349
211.721893	733.442200	771.039368	741.838379	22.331945
212.098724	733.070618	762.717468	745.702087	42.606445
212.475555	735.968506	771.633789	741.392578	15.208269
212.852356	737.528809	771.485168	740.426575	8.533795
213.229126	738.048889	778.023743	735.225403	-7.063156
213.605865	733.219238	765.169434	737.231628	12.558265
213.982590	727.720886	772.228210	737.231628	21.368937
214.359283	718.655945	767.918640	732.327637	27.752626
214.735931	723.262695	760.711243	730.395752	19.047619
215.112579	714.569275	755.064209	729.949951	37.981728
215.489197	721.033630	757.590576	735.596924	39.837280
215.865799	718.433044	761.974426	734.631042	37.201385
216.242355	727.200684	759.299500	733.516541	19.676292
216.618896	730.395752	755.732910	732.624817	8.797612
216.995407	730.470032	754.469788	731.807556	5.573075
217.371902	726.754883	761.677185	731.287415	12.978903
217.748367	720.513489	772.451111	729.801331	17.882687
218.124802	722.965515	772.896973	724.228699	2.529835
218.501236	726.606262	765.466614	729.726990	8.030621
218.877609	729.949890	752.612244	730.915833	4.262321
219.253983	726.680664	755.955872	737.231628	36.040615
219.630295	723.559875	760.042480	733.665100	27.698748
220.006592	720.959290	762.420227	732.550598	27.957180
220.382889	715.163635	757.739075	732.847839	41.536163
220.759140	715.758118	752.612305	731.733215	43.346764
221.135391	714.717957	753.652527	734.408020	50.572186
221.511581	715.089355	752.537903	737.157227	58.928509
221.887772	711.968750	755.807312	749.194336	84.915161
222.263931	716.278259	766.209656	748.376953	64.285591
222.640060	724.971680	773.565674	745.776367	42.813290
223.016159	730.990173	765.318054	735.448303	12.986907
223.392212	729.875671	756.921875	737.677429	28.846037
223.768265	723.559875	757.070496	741.987000	54.988907
224.144302	719.398926	765.763855	740.649597	45.833504
224.520294	717.169922	762.494568	737.380188	44.590015
224.896286	717.392761	766.878418	741.095398	47.897995
225.272217	722.668274	773.862793	737.305908	28.592190
225.648148	728.612488	779.658386	743.472961	29.111984
226.024048	729.801270	773.714172	741.466797	26.565147
226.399902	721.107910	764.500732	747.708252	61.301247
226.775772	712.265808	763.014648	744.884766	64.275276
227.151581	713.231750	759.819641	739.237793	55.821465
227.527374	710.333984	762.122986	736.637207	50.789207
227.903137	711.968689	767.175598	726.234802	25.841173
228.278870	711.151367	777.057861	734.928223	36.076649
228.654572	716.278259	776.834961	731.733215	25.521463
229.030273	716.724121	774.680176	738.940613	38.333340
229.405930	715.386536	767.398621	729.726990	27.571388
229.781555	717.095520	760.116882	738.494812	49.741085
230.157181	722.965515	755.732971	728.166687	15.872980
230.532761	722.668274	750.977539	732.996399	36.483196
230.908325	723.634094	763.460449	732.104736	21.268936
231.283859	719.398926	764.946533	746.222229	58.890697
231.659332	721.479431	769.479004	738.940613	36.377785
232.034821	719.176086	759.150940	730.395752	28.066809
232.410263	722.593933	756.030273	724.525879	5.777982
232.785690	722.668213	757.739075	727.795166	14.618840
233.161087	717.838623	762.123047	736.562927	42.281918
233.536469	713.231750	762.791748	736.191406	46.326992
233.911804	711.968567	762.717468	733.665039	42.752594
234.287140	725.045898	759.448059	720.439148	-13.390876
234.662430	727.497864	758.630798	721.107910	-20.524738
235.037704	727.126465	763.683350	716.352539	-29.471674
235.412933	720.067627	763.014648	724.228516	9.688422
235.788162	717.615723	766.655457	723.411316	11.818158
236.163345	719.324646	762.123047	732.401855	30.555368
236.538513	721.925293	765.466614	736.265625	32.934994
236.913635	725.714661	763.683350	732.253357	17.221285
237.288742	723.931458	769.999023	723.411316	-1.129084
237.663834	720.959290	775.348877	719.696228	-2.322249
238.038879	712.711731	774.977356	729.355530	26.730316
238.413910	716.426819	764.723633	737.231628	43.076981
238.788910	718.135803	758.928040	744.290344	64.116470
239.163879	724.897400	759.076599	739.163513	41.739166
239.538834	718.061523	760.488342	738.643311	48.511265
239.913757	723.114075	772.525391	735.819824	25.714251
240.288651	726.531982	778.989746	736.339905	18.696798
240.663528	732.104736	784.265198	735.968445	7.407351
241.038361	726.383484	771.410828	738.569031	27.062550
241.413177	718.804504	769.701843	741.095398	43.795795
241.787979	721.850891	766.729736	740.278015	41.059711
242.162735	719.919006	772.748291	731.436035	21.800463
242.537476	718.804504	764.946472	729.132629	22.383366
242.912170	713.454773	771.113586	736.637207	40.206226
243.286865	715.237976	769.850403	737.528809	40.816410
243.661514	714.272034	777.577942	736.265686	34.741863
244.036148	720.141907	782.556213	733.070618	20.714338
244.410751	716.649719	785.231140	736.637207	29.144173
244.785339	720.810730	785.825684	740.055115	29.599936
245.159882	716.724060	775.794739	745.330566	48.427589
245.534378	717.615662	774.085754	748.005554	53.815907
245.908890	714.569275	765.838196	744.810486	58.985466
246.283356	713.380432	770.667908	735.076843	37.872871
246.657791	716.946960	766.432617	732.847717	32.132053
247.032196	718.878906	782.927795	736.117126	26.914160
247.406586	715.906738	777.057800	740.946716	40.947739
247.780960	718.061523	784.785339	748.748535	45.991093
248.155289	716.352539	772.228210	751.051941	62.101093
248.529602	715.163635	773.937195	744.587585	50.063244
248.903870	714.569275	770.073425	736.265625	39.089600
249.278122	713.603333	769.627625	730.098450	29.442795
249.652344	715.683838	769.330383	731.287415	29.085894
250.026550	721.033630	773.268494	732.476257	21.906111
250.400711	731.138855	779.064026	743.101563	24.961220
250.774857	733.070618	785.379700	736.265686	6.108057
251.148987	718.432922	782.779114	735.225403	26.097086
251.523071	713.751953	781.441650	728.909668	22.392942
251.897125	718.358704	778.989746	743.250183	41.054020
252.271164	725.120300	772.451111	739.534973	30.455158
252.645187	720.439148	767.621399	738.643372	38.582779
253.019165	709.368103	763.088928	721.999573	23.513172
253.393112	710.111084	777.132141	732.030457	32.705204
253.767044	714.494934	787.608887	728.538269	19.207462
254.140930	716.129578	795.039124	738.048889	27.777769
254.514801	715.089355	792.512756	737.454529	28.886839
254.888657	715.683777	782.927795	736.488525	30.939180
255.262466	727.869446	778.321045	735.596924	15.316617
255.636276	731.956116	777.726563	737.380188	11.850599
256.010010	735.299744	776.834961	735.225403	-0.178983
256.383759	732.401855	776.834961	740.946777	19.230980
256.757446	729.132568	776.612000	735.151123	12.676130
257.131134	722.891113	785.454041	740.723816	28.503626
257.504791	720.810730	780.104248	734.928223	23.809504
257.878418	715.609558	773.416992	735.374023	34.190178
258.252014	720.884949	769.999084	740.129395	39.183109
258.625580	722.668274	783.893738	749.640137	44.053341
258.999115	729.132629	794.296082	744.364685	23.375151
259.372650	721.850891	804.401306	737.454590	18.902023
259.746124	716.278259	798.308411	726.011902	11.865932
260.119598	715.460938	806.927551	735.374023	21.770880
260.493042	721.925232	803.955383	743.175781	25.905779
260.866425	725.640320	810.865540	755.510071	35.048019
261.239838	724.005676	805.590088	750.829041	32.878052
261.613159	722.519714	808.562195	741.243958	21.761627
261.986511	722.742615	802.469421	743.844543	26.467796
262.359802	721.999512	790.878113	745.553467	34.196331
262.733063	721.405090	777.206482	752.983826	56.591305
263.106293	714.494934	778.246643	740.278015	40.442963
263.479523	716.649719	788.723328	735.522644	26.185625
263.852692	715.237976	794.296082	731.213074	20.206779
264.225861	715.163635	787.311584	736.191406	29.145348
264.598969	716.278137	779.955627	745.256348	45.507778
264.972076	709.293762	782.556213	743.621643	46.856037
265.345154	710.408386	798.085510	745.404846	39.915154
265.718201	712.563049	803.063782	736.488525	26.436777
266.091217	728.018066	812.500244	747.039551	22.515381
266.464203	736.711487	818.815979	754.767090	21.991005
266.837158	738.940613	817.404297	755.212891	20.738611
267.210114	728.835388	811.905823	751.200500	26.923071
267.583038	727.275085	802.246521	736.488586	12.289349
267.955902	718.433044	812.946045	738.643372	21.383648
268.328766	718.581604	820.153503	725.640381	6.949537
268.701569	711.002747	818.593079	727.646545	15.469604
269.074371	717.095520	810.642761	726.829163	10.405056
269.447144	718.804504	811.237061	735.076843	17.604553
269.819885	719.844727	814.580750	739.237793	20.470636
270.192596	719.027405	823.719910	740.203796	20.227228
270.565277	719.547546	835.831238	741.318298	18.722103
270.937927	722.816833	840.512390	734.259460	9.722225
271.310577	718.507324	838.803467	733.219238	12.229747
271.683136	713.900574	832.339111	741.541199	23.337526
272.055725	712.934570	836.648682	742.952942	24.264307
272.428284	712.414551	837.317383	739.460632	21.653698
272.800812	721.628113	837.317383	733.070618	9.890722
273.173279	725.268860	842.369934	737.305908	10.279196
273.545776	732.773438	850.394714	743.993164	9.538858
273.918152	732.476257	854.109802	750.903320	15.149655
274.290558	729.652649	848.834290	750.531799	17.518764
274.662964	729.206848	849.502991	745.256287	13.341607
275.035278	716.872620	849.354431	730.544373	10.319720
275.407593	718.804504	855.224365	733.219238	10.566448
275.779907	714.272034	855.298645	735.225403	14.857741
276.152161	721.330750	860.202637	739.609314	13.162178
276.524384	721.256531	861.242859	738.123230	12.048819
276.896606	718.284363	859.905334	740.500916	15.687332
277.268799	717.467102	863.546204	744.513367	18.514807
277.640930	711.225647	860.351135	743.398743	21.574512
278.013031	717.690125	862.134460	743.993103	18.209768
278.385162	719.919128	863.471985	739.460632	13.612759
278.757233	721.851013	868.747375	739.089172	11.734912
279.129272	720.364929	873.502747	742.358459	14.361919
279.501282	718.135742	867.038513	744.290344	17.564886
279.873230	719.696106	866.295593	743.621765	16.320425
280.245178	719.770508	872.091064	740.203796	13.414662
280.617126	720.587830	878.629700	741.689758	13.352113
280.988983	720.736389	893.490234	739.163391	10.666623
281.360870	723.559875	906.418884	740.723816	9.386435
281.732697	721.479309	909.391052	737.528809	8.540977
282.104492	723.411316	910.282654	735.745544	6.600385
282.476288	727.720886	907.533447	737.454529	5.413216
282.848053	730.470032	919.198975	744.067444	7.204731
283.219757	730.247131	917.341370	747.336731	9.134220
283.591461	724.302917	922.022461	741.095276	8.493019
283.963135	720.736389	911.991516	733.442139	6.643351
284.334747	722.742615	922.988464	735.448303	6.345045
284.706360	712.860352	934.505371	736.042786	10.459262
285.077942	721.553711	951.074890	733.962219	5.406259
285.449524	714.569275	948.028503	733.962219	8.306780
285.821014	715.683777	947.656982	736.191345	8.840490
286.192535	714.940735	953.526855	743.250061	11.865454
286.563995	713.380432	965.192383	746.147949	13.012693
286.935425	714.494934	965.043762	745.553528	12.396224
287.306824	709.888184	965.117981	741.095398	12.227104
287.678223	710.705566	962.591736	736.860107	10.383476
288.049561	718.581604	964.523621	736.637207	7.341406
288.420898	720.662109	968.758789	744.067444	9.433957
288.792145	726.680664	973.365540	742.284180	6.325283
289.163452	722.816895	974.182922	745.702148	9.104354
289.534668	723.857117	977.600891	743.398743	7.701323
289.905914	717.987122	984.956848	748.822815	11.550259
290.277039	717.764343	997.811218	753.801086	12.868112
290.648193	722.148193	1011.260010	754.618408	11.231023
291.019318	729.727051	1023.742859	753.726807	8.162744
291.390381	732.253357	1021.736633	747.262451	5.184788
291.761475	727.497986	1015.941101	742.358459	5.151960
292.132507	725.714600	1013.711975	739.906494	4.927786
292.503510	723.559875	1017.129944	734.928223	3.872448
292.874481	733.962219	1020.993713	750.011719	5.591547
293.245422	733.516418	1020.547913	748.228333	5.125540
293.616364	734.408142	1026.120483	753.206726	6.444220
293.987213	719.250305	1029.835693	741.169617	7.057419
294.358093	715.832458	1049.748779	739.757874	7.165093
294.728943	709.888184	1070.182007	737.900330	7.774806
295.099731	711.448547	1094.033203	737.900330	6.913969
295.470490	715.089355	1101.240723	742.878601	7.196465
295.841248	720.959290	1111.345825	740.946777	5.119923
296.211975	716.575439	1125.389038	739.534973	5.616138
296.582642	713.900574	1131.779053	741.095398	6.507831
296.953308	716.575439	1146.862427	739.534912	5.335851
297.323883	719.176025	1147.382690	736.711426	4.095079
297.694519	716.649719	1166.181274	743.398743	5.950422
298.065063	711.597168	1170.639404	753.281006	9.080610
298.435608	715.683777	1169.450562	757.070496	9.120703
298.806122	714.569275	1152.063599	751.423401	8.423909
299.176575	716.278137	1129.327026	747.039612	7.447417
299.547028	709.442383	1123.531494	747.782532	9.258913
299.917450	708.327820	1130.664551	742.952942	8.198463
300.287872	705.058411	1136.311523	739.163391	7.908344
300.658234	711.894348	1133.933960	738.717590	6.355622
301.028564	713.454773	1128.732544	738.494812	6.029708
301.398865	720.141907	1118.776001	739.832214	4.939444
301.769135	721.405090	1120.484985	736.339905	3.742312
302.139374	727.126404	1119.147583	732.847717	1.459440
302.509583	728.983948	1130.515869	733.144958	1.036284
302.879791	727.572266	1142.032837	731.881836	1.039802
303.249939	731.436035	1147.679810	735.076843	0.874682
303.620087	722.371094	1145.450806	733.516418	2.634332
303.990173	721.850891	1131.704712	738.123230	3.970279
304.360260	717.021240	1141.364136	742.358398	5.970916
304.730286	722.296692	1152.286621	747.262512	5.806141
305.100281	726.531982	1157.116333	745.702148	4.452128
305.470276	729.281189	1153.624023	744.810486	3.659611
305.840179	733.293518	1157.859253	743.398743	2.380132
306.210144	727.943787	1163.506348	741.243958	3.053561
306.579987	733.590759	1178.441284	747.113831	3.039913
306.949890	733.070618	1179.109985	743.250183	2.282212
307.319702	735.894226	1200.286133	742.209900	1.359988
307.689484	729.652771	1199.543091	739.980774	2.197960
308.059265	731.213074	1214.329224	743.472961	2.537669
308.429016	730.172852	1223.171265	748.302734	3.677473
308.798737	728.315247	1238.477661	740.649597	2.417730
309.168396	722.593933	1257.053345	740.055115	3.267073
309.538055	726.011902	1273.994507	738.717590	2.318630
309.907684	725.937561	1290.266724	746.742371	3.686644
310.277313	719.844727	1300.297485	747.113831	4.697902
310.646851	711.374207	1314.340698	753.058105	6.913137
311.016388	709.516663	1327.418091	753.652527	7.142865
311.385895	717.764343	1336.111450	748.822815	5.022821
311.755371	716.575439	1333.436646	745.776367	4.733792
312.124817	712.860291	1330.167358	739.757874	4.357245
312.494232	712.563049	1334.328247	748.302673	5.748090
312.863617	719.027344	1329.795776	746.816589	4.549882
313.232971	727.720764	1324.000244	750.234558	3.775712
313.602295	725.491760	1318.947632	744.141785	3.142613
313.971619	729.875671	1328.235352	742.952942	2.185520
314.340820	730.767273	1338.860718	743.175781	2.040560
314.710083	739.460693	1354.092651	749.863037	1.692451
315.079285	727.943665	1370.959473	759.522461	4.911045
315.448486	730.098572	1393.918945	760.562683	4.589210
315.817596	719.696106	1393.919067	756.476013	5.455155
316.186707	721.107910	1373.560181	751.646301	4.680555
316.555786	713.083191	1353.498413	750.977539	5.917153
316.924866	712.042969	1334.402466	751.126160	6.279841
317.293884	721.405090	1337.523071	748.376953	4.377711
317.662872	726.086182	1336.037231	749.863037	3.898158
318.031830	722.073792	1354.464355	746.816650	3.912591
318.400757	719.919128	1366.575684	750.680359	4.756966
318.769684	716.203918	1378.538452	749.342957	5.003368
319.138550	723.559875	1372.742798	746.073669	3.468020
319.507416	713.380432	1379.875854	741.689758	4.247490
319.876190	706.916016	1375.714844	736.860046	4.477285
320.244995	711.076965	1395.479492	748.748535	5.504300
320.613770	722.445313	1386.563110	753.726807	4.710233
320.982483	726.977844	1387.083130	753.429688	4.007216
321.351166	716.278259	1376.160767	753.132385	5.584953
321.719818	709.070801	1377.498169	750.085938	6.136065
322.088440	707.882019	1390.501099	746.965271	5.725485
322.457062	715.980957	1405.733276	744.587585	4.147377
322.825623	721.107910	1423.194336	746.519470	3.619435
323.194183	733.665039	1440.135376	751.572021	2.534711
323.562653	735.225403	1464.432251	752.389343	2.353782
323.931183	732.922058	1502.847046	752.166443	2.499514
324.299591	718.507324	1541.335815	747.336731	3.503696
324.668060	715.312317	1560.505859	749.268616	4.017577
325.036407	716.203918	1577.818359	750.531738	3.984128
