Jaz Data File
++++++++++++++++++++++++++++++++++++
Date: Fri Jun 04 16:57:45 2021
User: jaz
Dark Spectrum Present: Yes
Reference Spectrum Present: Yes
Processed Spectrum Present: Yes
Spectrometers: JAZA3586
Integration Time (usec): 24100 (JAZA3586)
Spectra Averaged: 10 (JAZA3586)
Boxcar Smoothing: 1 (JAZA3586)
Correct for Electrical Dark: No (JAZA3586)
Strobe/Lamp Enabled: Yes (JAZA3586)
Correct for Detector Non-linearity: No (JAZA3586)
Correct for Stray Light: No (JAZA3586)
Number of Pixels in Processed Spectrum: 2048
>>>>>Begin Processed Spectral Data<<<<<
W	D	R	S	P
191.335022	0.000000	0.000000	0.000000	0.000000
191.713211	231.750168	230.487076	231.527283	17.645992
192.091385	464.689209	467.364166	462.831635	-69.443146
192.469528	703.795410	704.909973	693.541565	-919.987976
192.847641	708.996582	712.340149	701.863525	-213.336746
193.225739	713.974854	721.850891	718.953125	63.207817
193.603790	717.392822	729.429871	729.875671	103.703575
193.981842	725.045959	740.055176	728.389587	22.277164
194.359863	737.974609	736.934387	722.445374	1492.876831
194.737854	747.708252	733.293640	722.296692	176.290283
195.115829	752.315125	732.699219	724.897278	139.773544
195.493774	749.788757	734.259521	727.126465	145.933075
195.871704	748.377014	739.906494	729.875671	218.420395
196.249603	748.005554	740.203674	740.500916	96.190132
196.627457	749.714417	744.290344	738.346130	209.589508
197.005310	746.816711	745.924988	742.730042	458.288849
197.383133	747.931213	747.782532	735.151123	8595.607422
197.760910	747.039551	745.850769	739.163391	662.540405
198.138687	748.674255	741.764099	733.293518	222.581619
198.516449	749.268616	737.603088	736.117004	112.739105
198.894180	746.965149	734.482422	735.448425	92.261276
199.271866	744.884766	737.900391	732.922058	171.278137
199.649536	743.250183	736.934387	735.151062	128.235947
200.027191	745.627747	734.482422	728.761047	151.334305
200.404816	744.884766	732.179016	729.578430	120.467789
200.782410	740.872375	747.708313	728.761047	-177.171432
201.159988	739.312073	758.333557	737.825989	-7.812660
201.537537	734.556702	767.621399	739.163513	13.932719
201.915070	731.213074	765.095032	738.197510	20.614027
202.292557	724.005676	764.723572	740.723816	41.058456
202.670029	717.987305	765.466614	752.017822	71.674416
203.047485	717.021301	764.426331	753.801086	77.586250
203.424911	717.169922	765.243713	748.822754	65.842178
203.802292	721.628113	761.157043	748.674255	68.421135
204.179688	721.256531	755.510071	746.445129	73.535751
204.557037	730.915833	760.414063	751.497742	69.773369
204.934357	729.875671	756.847473	744.587585	54.545536
205.311661	731.584656	763.609131	746.816650	47.563602
205.688934	719.770447	756.104492	737.380188	48.466228
206.066177	718.210144	767.027039	731.658875	27.549335
206.443390	713.083191	763.311829	729.578430	32.840309
206.820587	712.414490	766.506836	725.937561	24.999971
207.197769	702.606445	753.206726	734.556641	63.142326
207.574921	699.634338	752.092102	738.123230	73.371201
207.952042	708.327820	747.039551	743.027161	89.635208
208.329147	725.120300	753.801086	735.374084	35.751404
208.706223	742.061218	765.318054	731.287415	-46.325321
209.083267	738.271790	769.256042	737.008606	-4.076857
209.460297	734.853943	770.221985	734.110840	-2.101058
209.837280	722.891174	754.692688	731.510254	27.102734
210.214264	717.764343	755.064209	730.767273	34.860527
210.591217	715.906738	754.841309	738.643372	58.397030
210.968124	721.107971	762.345886	737.677429	40.180153
211.345016	727.126465	763.386169	737.974609	29.917906
211.721893	730.395813	762.866028	730.990173	1.830479
212.098724	733.293640	761.751465	734.853943	5.482860
212.475555	730.098572	760.488342	728.983887	-3.667961
212.852356	726.457764	758.927917	732.996277	20.136995
213.229126	720.439270	756.327332	734.185120	38.302013
213.605865	718.730225	755.658691	737.083008	49.698200
213.982590	713.677734	755.212891	738.494690	59.749275
214.359283	703.349609	758.482178	729.727051	47.843666
214.735931	709.219482	760.859863	723.336914	27.337969
215.112579	717.095642	763.014648	720.290588	6.957786
215.489197	729.504150	757.441895	724.525879	-17.819160
215.865799	719.398926	755.658691	727.423645	22.131195
216.242355	716.649719	748.377014	726.903503	32.318497
216.618896	712.414490	747.485413	730.990173	52.966053
216.995407	712.637390	749.343018	730.024231	47.368324
217.371902	708.030579	760.934143	724.748779	31.601274
217.748367	712.860352	761.677246	716.129639	6.697040
218.124802	720.067688	753.726807	724.674377	13.686304
218.501236	725.937561	750.160339	726.754883	3.374187
218.877609	718.432922	755.064270	730.247131	32.251637
219.253983	714.866455	758.779358	722.296692	16.920395
219.630295	714.940735	752.537903	726.532043	30.830271
220.006592	717.095520	750.754700	725.566101	25.165739
220.382889	718.804504	749.194336	726.977844	26.894983
220.759140	718.804443	749.120056	721.702332	9.559062
221.135391	717.838562	749.565857	723.039795	16.393559
221.511581	716.352539	755.584412	723.114075	17.234802
221.887772	714.643555	763.237549	729.801270	31.192568
222.263931	712.117371	765.318054	730.321472	34.217796
222.640060	713.603333	763.460449	731.510254	35.916481
223.016159	716.352539	762.123047	732.847717	36.038879
223.392212	728.166687	756.104492	734.853943	23.936224
223.768265	733.590759	757.070374	730.692932	-12.341886
224.144302	737.083008	764.500732	727.720886	-34.146236
224.520294	731.807434	773.491394	725.863281	-14.260048
224.896286	724.154297	774.531555	727.869446	7.374655
225.272217	719.250305	768.810242	732.327637	26.386902
225.648148	726.160461	761.528564	733.219238	19.958031
226.024048	731.064453	761.082703	734.259521	10.643753
226.399902	727.349304	765.986633	727.795166	1.153966
226.775772	717.987244	770.444885	728.761169	20.538334
227.151581	712.340149	774.382996	737.974670	41.317448
227.527374	722.593933	763.757629	740.575256	43.682480
227.903137	726.309082	763.534729	736.042786	26.147842
228.278870	730.321350	758.853699	729.950012	-1.301463
228.654572	725.714661	757.887695	733.367859	23.787617
229.030273	726.011902	751.869202	730.395752	16.954014
229.405930	724.600159	751.794922	726.903503	8.469810
229.781555	717.838623	758.482239	725.417480	18.647104
230.157181	715.683838	760.934265	728.538147	28.407045
230.532761	711.745789	758.630798	726.011902	30.427877
230.908325	714.420654	756.996094	724.228577	23.036573
231.283859	719.844727	756.104492	724.451477	12.704855
231.659332	719.993347	760.562683	727.349365	18.131966
232.034821	723.336975	754.246887	732.996277	31.249851
232.410263	723.262695	752.686584	737.082947	46.969494
232.785690	731.436035	751.572021	743.621582	60.516266
233.161087	722.593994	756.401672	734.036621	33.846237
233.536469	711.745789	762.494446	725.863281	27.818455
233.911804	709.591003	764.426453	716.278259	12.195133
234.287140	719.324646	765.020813	721.033630	3.739886
234.662430	719.473206	764.575012	724.080017	10.214251
235.037704	719.324707	756.698914	731.956055	33.796967
235.412933	715.683777	756.624573	721.107849	13.248575
235.788162	717.541321	749.565918	727.275085	30.394651
236.163345	715.312317	757.887756	725.566101	24.083801
236.538513	708.550781	757.739075	737.974609	59.818764
236.913635	710.556946	759.596680	734.408142	48.636471
237.288742	709.888184	755.658630	731.287354	46.753246
237.663834	714.272034	758.407898	728.463867	32.154877
238.038879	710.408264	758.036377	732.030457	45.397961
238.413910	712.265869	758.185059	731.956055	42.880081
238.788910	713.083191	757.813477	731.584656	41.362278
239.163879	715.609558	762.568848	732.550537	36.075886
239.538834	711.522766	772.302551	733.442139	36.063591
239.913757	714.049133	779.435547	737.825989	36.363602
240.288651	719.547546	785.751282	739.089111	29.517315
240.663528	728.018066	783.967957	735.596924	13.545795
241.038361	719.919128	778.841125	736.785706	28.625263
241.413177	719.547546	769.330383	737.231628	35.522446
241.787979	716.129639	769.553284	736.265625	37.691151
242.162735	723.559875	775.720398	732.996338	18.091196
242.537476	715.535156	791.472595	731.510254	21.037182
242.912170	713.529053	799.274353	742.581360	33.882099
243.286865	709.739563	791.621155	744.067383	41.923733
243.661514	720.067627	781.664612	741.021057	34.016975
244.036148	723.708496	778.098145	733.293518	17.622879
244.410751	735.522644	779.361267	728.018066	-17.118643
244.785339	730.841553	774.605896	729.281250	-3.565237
245.159882	726.680664	777.057861	738.420471	23.303812
245.534378	718.284424	779.881348	742.135559	38.721310
245.908890	720.290527	791.249695	733.442200	18.534142
246.283356	725.491760	786.865784	726.234802	1.210678
246.657791	728.092285	798.011230	721.479431	-9.457886
247.032196	725.268860	804.326965	733.070618	9.868384
247.406586	724.897278	802.246399	727.052063	2.785791
247.780960	718.953125	801.280457	728.612488	11.732875
248.155289	713.974792	809.750977	724.748718	11.249065
248.529602	708.253479	819.484680	734.259460	23.380114
248.903870	720.885010	811.608643	732.847717	13.185878
249.278122	721.776672	802.692322	732.179016	12.855787
249.652344	723.485657	791.695496	730.098572	9.694958
250.026550	714.420715	798.977234	729.355469	17.662451
250.400711	718.210144	790.581055	730.544373	17.043076
250.774857	720.885010	795.559265	733.813660	17.313396
251.148987	720.513428	790.209473	740.203796	28.251774
251.523071	725.268860	802.989502	738.048889	16.443546
251.897125	726.606262	804.549866	729.429871	3.622630
252.271164	726.457703	817.478577	724.674500	-1.959114
252.645187	715.535217	809.230957	720.736511	5.551260
253.019165	706.767517	813.094727	722.816895	15.094328
253.393112	711.745789	808.636536	726.234802	14.953971
253.767044	718.953125	809.825378	722.816833	4.251802
254.140930	723.114075	807.373352	721.702332	-1.675475
254.514801	716.352539	796.227966	723.188293	8.558020
254.888657	714.792175	799.348694	724.823059	11.862934
255.262466	719.993408	802.989563	728.909668	10.742979
255.636276	719.398987	809.453857	723.857117	4.950459
256.010010	724.897278	819.559082	731.138855	6.593554
256.383759	723.336975	817.181335	729.429871	6.492554
256.757446	732.401917	832.339111	738.494690	6.096602
257.131134	731.138733	826.320557	736.934387	6.089035
257.504791	722.222473	834.939697	733.516418	10.019715
257.878418	715.832458	836.945801	725.566101	8.036804
258.252014	711.448547	849.280090	727.646545	11.752026
258.625580	718.730225	855.075684	737.900391	14.059996
258.999115	718.284424	861.317139	744.513245	18.337637
259.372650	718.507324	866.964172	746.519470	18.868881
259.746124	718.507324	891.558350	733.739441	8.802095
260.119598	715.535156	914.443542	725.640381	5.080341
260.493042	714.123474	934.208008	723.336975	4.186347
260.866425	711.076965	933.465027	726.680664	7.016428
261.239838	716.129639	921.130859	736.191345	9.786140
261.613159	719.696228	905.452942	731.807556	6.519995
261.986511	724.302917	895.942322	734.556641	5.973991
262.359802	720.439209	886.728699	720.810608	0.223345
262.733063	719.919006	877.589417	720.513489	0.377041
263.106293	710.705505	875.806152	724.748718	8.505850
263.479523	710.705566	876.177673	737.008728	15.895828
263.852692	715.832458	882.121887	740.798157	15.013401
264.225861	721.999573	877.960938	737.751709	10.100024
264.598969	722.073792	878.332458	729.058289	4.469830
264.972076	712.785950	875.806152	726.829163	8.614400
265.345154	714.643555	880.041443	721.702332	4.267755
265.718201	715.386536	886.059998	721.627991	3.656957
266.091217	719.101746	898.394226	726.160461	3.936984
266.464203	719.027405	909.911133	730.841553	6.189186
266.837158	720.959290	918.678772	732.624817	5.900039
267.210114	721.330811	930.047119	731.956055	5.090759
267.583038	722.371094	933.167786	730.618652	3.912565
267.955902	723.114075	934.876892	729.949951	3.228081
268.328766	719.250305	925.589050	728.909668	4.681313
268.701569	713.826172	931.607605	730.098572	7.471895
269.074371	717.318420	934.208069	729.949951	5.823944
269.447144	720.290588	953.378235	730.395752	4.335349
269.819885	725.789001	954.567078	728.018066	0.974335
270.192596	725.417480	978.566833	730.767273	2.113295
270.565277	728.538147	986.071289	727.349304	-0.461627
270.937927	733.590759	1010.814148	729.504150	-1.474121
271.310577	725.863281	1025.451782	727.349304	0.496021
271.683136	723.411316	1054.801392	730.470032	2.130032
272.055725	712.711731	1071.148071	727.869446	4.228844
272.428284	717.244202	1079.915649	732.773438	4.281902
272.800812	713.603333	1073.154175	734.705261	5.868969
273.173279	713.826172	1068.621704	737.528809	6.680647
273.545776	714.494934	1064.980835	733.739319	5.490773
273.918152	716.055237	1064.163452	732.624817	4.759893
274.290558	716.352539	1056.659058	735.225403	5.545843
274.662964	715.015137	1049.154419	739.980774	7.471626
275.035278	721.999512	1049.674561	744.736084	6.938756
275.407593	723.337097	1056.881958	748.302734	7.484941
275.779907	723.188477	1070.702271	744.141785	6.029490
276.152161	720.290588	1076.497803	743.695984	6.570724
276.524384	725.937561	1088.683472	732.773438	1.884481
276.896606	727.126465	1102.429321	727.349304	0.059376
277.268799	723.411316	1116.918335	724.154297	0.188810
277.640930	712.860291	1125.463257	728.686707	3.835749
278.013031	711.671387	1130.590210	736.934326	6.030509
278.385162	710.036804	1136.757324	740.352295	7.104296
278.757233	708.402161	1138.837891	742.284180	7.871563
279.129272	709.516663	1138.317749	741.912781	7.555046
279.501282	710.556946	1136.831665	732.179016	5.072332
279.873230	713.231873	1147.531250	727.275085	3.233533
280.245178	710.854187	1163.060547	723.485535	2.793271
280.617126	720.810730	1195.753784	721.405090	0.125143
280.988983	728.612488	1225.400513	719.621887	-1.809746
281.360870	729.429871	1246.279541	727.869446	-0.301911
281.732697	717.095520	1260.174194	735.299744	3.352042
282.104492	715.609558	1279.938599	739.237793	4.186961
282.476288	721.925293	1306.539063	735.819824	2.376703
282.848053	721.999573	1327.938232	740.278015	3.016550
283.219757	718.804504	1330.687500	741.020996	3.630840
283.591461	708.699402	1322.885620	739.237793	4.972171
283.963135	710.259766	1312.111694	728.240967	2.987645
284.334747	712.637390	1313.151978	723.262695	1.769367
284.706360	716.946960	1336.334351	718.507324	0.251920
285.077942	720.439209	1372.817017	730.915833	1.605914
285.449524	719.696228	1415.689819	743.918884	3.480299
285.821014	720.439148	1436.494507	742.729980	3.113004
286.192535	721.776611	1461.757324	733.442200	1.576472
286.563995	716.278137	1475.429077	720.736328	0.587260
286.935425	716.278137	1499.577515	726.011902	1.242662
287.306824	714.272034	1509.534180	722.965515	1.093159
287.678223	721.330811	1499.429077	728.686768	0.945376
288.049561	719.176025	1473.422974	731.510254	1.635304
288.420898	719.027405	1444.519165	737.082947	2.488731
288.792145	724.377136	1444.593628	737.751709	1.857021
289.163452	729.504089	1457.373535	733.962219	0.612490
289.534668	728.983948	1481.967773	735.151184	0.819040
289.905914	722.073792	1509.756958	733.888000	1.499868
290.277039	721.107910	1545.199341	735.299744	1.722119
290.648193	726.754883	1577.223755	739.757874	1.528920
291.019318	729.355469	1602.040894	739.014832	1.106855
291.390381	728.538269	1614.077759	733.516418	0.562160
291.761475	723.262695	1609.619751	727.720886	0.502979
292.132507	724.154297	1597.137085	731.287354	0.817090
292.503510	722.965515	1580.344604	736.340027	1.559930
292.874481	730.618652	1574.251587	738.494812	0.933600
293.245422	724.005676	1578.486938	741.392517	2.034783
293.616364	722.445374	1605.310181	742.729980	2.297589
293.987213	711.002747	1643.799194	744.141785	3.552655
294.358093	721.107910	1689.718140	741.912659	2.147897
294.728943	721.850891	1737.197632	742.507080	2.034398
295.099731	729.949951	1782.373657	739.312073	0.889577
295.470490	722.816895	1808.602539	733.442139	0.978577
295.841248	721.479431	1826.880859	729.132568	0.692340
296.211975	712.191589	1846.125366	732.104675	1.756106
296.582642	713.454773	1891.078613	724.674500	0.952743
296.953308	708.327820	1955.870483	730.692932	1.792733
297.323883	710.705566	2002.383911	733.962219	1.800499
297.694519	707.138977	2029.430176	748.377014	3.118680
298.065063	708.847961	2017.096069	746.890930	2.907932
298.435608	715.312317	2000.377930	739.237793	1.861810
298.806122	729.504150	1950.817993	735.002502	0.450200
299.176575	737.603088	1900.737915	729.578430	-0.689916
299.547028	736.637207	1858.831177	721.479431	-1.350727
299.917450	725.789001	1840.478516	716.055359	-0.873216
300.287872	727.423645	1834.236938	720.662109	-0.610901
300.658234	723.262695	1829.333008	733.293640	0.906899
301.028564	724.748779	1830.076172	742.209900	1.579724
301.398865	721.850891	1829.407349	741.318298	1.757690
301.769135	725.491760	1826.435181	737.677429	1.106839
302.139374	723.411316	1837.877930	735.151123	1.053401
302.509583	719.473206	1846.348267	735.448242	1.417641
302.879791	721.702332	1837.654907	736.860046	1.358276
303.249939	719.101746	1816.701538	729.578430	0.954509
303.620087	718.804504	1795.450806	730.024231	1.042100
303.990173	711.820068	1799.686157	729.429871	1.618747
304.360260	716.575500	1806.299194	738.569031	2.018267
304.730286	717.764343	1815.141235	739.386414	1.970341
305.100281	719.324707	1814.546509	740.798157	1.960649
305.470276	715.312256	1821.902710	736.562805	1.920363
305.840179	709.516785	1836.688965	737.380188	2.471974
306.210144	710.482666	1848.503296	731.658875	1.860793
306.579987	714.940857	1857.716797	734.705322	1.729514
306.949890	723.559875	1866.187134	734.333801	0.942908
307.319702	727.795166	1883.945679	737.008606	0.796907
307.689484	725.566101	1911.660278	732.104675	0.551269
308.059265	718.358704	1950.297729	731.064453	1.031362
308.429016	710.705505	1994.805054	737.008606	2.048369
308.798737	707.956299	2037.603516	740.129395	2.419672
309.168396	713.751953	2069.033691	741.318176	2.033985
309.538055	718.804504	2103.881592	740.946777	1.598631
309.907684	712.934570	2123.869141	742.061279	2.064356
310.277313	706.693176	2158.642822	734.185242	1.893458
310.646851	699.634460	2176.252441	732.327637	2.214058
311.016388	706.544617	2189.552490	723.411316	1.137330
311.385895	709.962585	2191.781738	730.395752	1.378924
311.755371	711.374268	2193.639404	730.841553	1.313347
312.124817	714.049133	2208.722900	738.420410	1.630541
312.494232	717.318542	2197.354492	737.825989	1.385605
312.863617	720.736389	2195.719971	731.584656	0.735484
313.232971	716.724060	2169.490967	734.408142	1.217269
313.602295	715.683777	2162.803711	735.448425	1.365792
313.971619	715.980957	2159.979980	740.055176	1.667191
314.340820	715.163635	2174.692139	730.841614	1.074181
314.710083	719.101746	2200.326416	728.984070	0.667173
315.079285	717.541321	2236.883545	734.408142	1.110140
315.448486	718.581604	2265.564209	739.609314	1.359272
315.817596	716.501160	2266.530029	737.157288	1.332629
316.186707	716.724121	2231.682373	731.510254	0.976009
316.555786	716.724060	2196.982910	735.968445	1.300069
316.924866	711.820068	2163.695313	736.562927	1.704200
317.293884	716.352539	2145.713867	740.278015	1.673858
317.662872	716.278137	2137.466553	735.671204	1.364567
318.031830	719.844727	2150.097900	743.770203	1.672814
318.400757	717.987122	2167.781982	744.438965	1.824523
318.769684	722.742493	2176.921143	749.342957	1.829243
319.138550	723.485535	2190.369873	739.163513	1.068794
319.507416	722.296692	2205.453369	736.562927	0.961883
319.876190	722.742493	2226.035156	732.550537	0.652437
320.244995	724.748718	2237.403564	736.340027	0.766289
320.613770	724.154297	2217.638916	733.144958	0.601992
320.982483	724.823059	2204.413086	726.754883	0.130565
321.351166	725.714661	2166.667236	725.640381	-0.005155
321.719818	720.364929	2159.534424	727.052185	0.464661
322.088440	715.683777	2157.825195	736.637146	1.452935
322.457062	705.429993	2177.961182	736.117004	2.083963
322.825623	714.643555	2211.917725	740.352295	1.717036
323.194183	719.398926	2252.709961	740.500916	1.376237
323.562653	722.742493	2309.328369	745.925049	1.461160
323.931183	720.587830	2376.275391	745.702148	1.516851
324.299591	714.569336	2445.451172	746.519470	1.845888
324.668060	719.844788	2502.218506	744.290344	1.371517
325.036407	720.513489	2542.862305	750.085938	1.622766
325.404755	723.857117	2558.391357	748.005554	1.316325
