Jaz Data File
++++++++++++++++++++++++++++++++++++
Date: Fri Jun 04 17:02:08 2021
User: jaz
Dark Spectrum Present: Yes
Reference Spectrum Present: Yes
Processed Spectrum Present: Yes
Spectrometers: JAZA3586
Integration Time (usec): 121000 (JAZA3586)
Spectra Averaged: 10 (JAZA3586)
Boxcar Smoothing: 1 (JAZA3586)
Correct for Electrical Dark: No (JAZA3586)
Strobe/Lamp Enabled: Yes (JAZA3586)
Correct for Detector Non-linearity: No (JAZA3586)
Correct for Stray Light: No (JAZA3586)
Number of Pixels in Processed Spectrum: 2048
>>>>>Begin Processed Spectral Data<<<<<
W	D	R	S	P
191.335022	0.000000	0.000000	0.000000	0.000000
191.713211	225.805969	227.812134	225.285843	-25.926405
192.091385	456.738800	461.791412	460.008148	64.706093
192.469528	686.482849	693.913086	692.352722	78.999809
192.847641	699.188538	708.030579	704.909912	64.706490
193.225739	716.501160	719.696106	713.231750	-102.330643
193.603790	733.145020	731.584656	733.665039	-33.326813
193.981842	736.117004	733.962341	743.918945	-362.095642
194.359863	734.779602	737.157227	746.445129	490.637909
194.737854	737.380188	747.931152	742.507141	48.592270
195.115829	753.281067	748.154114	745.404968	153.621429
195.493774	759.596680	749.268616	746.816589	123.741394
195.871704	762.791748	744.810547	742.581360	112.397316
196.249603	761.082825	753.726807	737.157227	325.252045
196.627457	756.178772	751.051941	741.615479	284.060333
197.005310	760.191162	749.640137	741.912659	173.239120
197.383133	755.361511	742.358459	748.897156	49.714142
197.760910	755.955872	743.918762	749.045715	57.407108
198.138687	748.376953	747.188171	749.120117	-62.514763
198.516449	743.324402	750.383240	745.181946	26.315153
198.894180	742.729980	741.764099	737.231628	569.257507
199.271866	743.101563	731.138855	742.284180	6.832757
199.649536	742.878601	726.606262	744.884827	-12.329055
200.027191	743.324402	733.293518	745.404968	-20.741606
200.404816	737.603088	736.191406	736.934387	47.369102
200.782410	740.649597	748.525635	735.374023	-66.982590
201.159988	736.934387	759.225281	746.147949	41.333302
201.537537	738.197571	773.937195	752.983826	41.372162
201.915070	729.058289	768.513000	749.788757	52.542442
202.292557	726.606262	768.587341	742.061279	36.814243
202.670029	726.531982	763.609070	743.324402	45.290558
203.047485	732.104675	771.187988	741.689758	24.524746
203.424911	730.692932	768.215820	746.147949	41.188240
203.802292	724.600098	763.386169	748.525635	61.685898
204.179688	724.377197	762.420227	753.281006	75.976624
204.557037	733.219238	762.568848	744.438965	38.227856
204.934357	733.070618	769.404602	738.048889	13.701419
205.311661	728.612488	767.175598	733.813660	13.487429
205.688934	716.575439	765.540833	739.312073	46.434086
206.066177	720.216309	764.575012	734.185242	31.490850
206.443390	713.900574	759.225281	731.213074	38.196606
206.820587	721.850891	755.435730	724.971680	9.292254
207.197769	727.646667	755.732910	725.566101	-7.407778
207.574921	733.962341	758.482117	731.138855	-11.515140
207.952042	727.646545	761.900085	732.476257	14.099892
208.329147	724.897400	759.522461	736.934387	34.763802
208.706223	763.757629	806.853210	780.104309	37.931221
209.083267	769.627625	809.156555	784.265320	37.030334
209.460297	771.039368	811.014160	787.608887	41.449921
209.837280	735.076843	764.946533	739.386414	14.427904
210.214264	730.247131	769.107422	738.643311	21.606064
210.591217	728.538147	770.444885	727.052063	-3.546170
210.968124	728.983948	771.559509	732.550476	8.376938
211.345016	731.733215	767.472839	735.819824	11.434393
211.721893	731.361633	758.853699	736.637207	19.189442
212.098724	732.773438	756.030273	732.476257	-1.277819
212.475555	732.847717	755.510071	733.813660	4.262321
212.852356	728.686768	758.779358	741.243896	41.728310
213.229126	726.829285	765.912415	737.677429	27.756592
213.605865	724.154297	762.643066	726.160461	5.212337
213.982590	721.776672	765.020813	721.850891	0.171627
214.359283	715.237976	762.494446	725.045898	20.754665
214.735931	709.591003	762.791748	728.092346	34.776474
215.112579	714.346375	757.367676	735.745544	49.740871
215.489197	719.250305	755.732910	735.225403	43.788258
215.865799	725.120300	759.819641	731.733215	19.057755
216.242355	716.575439	762.197266	725.194580	18.892582
216.618896	717.764221	760.785583	725.789001	18.653013
216.995407	718.135742	763.163269	729.355530	24.917620
217.371902	723.411316	764.129150	732.030457	21.167974
217.748367	732.922058	762.791687	734.631042	5.721478
218.124802	731.138855	753.503906	739.460632	37.208847
218.501236	730.024231	756.327393	736.637207	25.141373
218.877609	718.878845	755.881592	730.990173	32.730888
219.253983	718.433044	758.705078	727.646545	22.878162
219.630295	725.491760	755.361511	724.600098	-2.985169
220.006592	728.835449	750.903320	726.457764	-10.774422
220.382889	730.024231	746.073669	724.748779	-32.870007
220.759140	717.541321	745.107727	733.442200	57.682087
221.135391	716.426819	742.952942	737.380188	78.991447
221.511581	715.535156	752.760925	741.838379	70.658638
221.887772	723.485596	756.253113	742.507141	58.050007
222.263931	724.080078	772.079590	743.770264	41.021637
222.640060	724.005676	766.581238	744.513245	48.167465
223.016159	717.095520	767.621399	743.027161	51.323483
223.392212	719.919006	757.813477	737.008606	45.097874
223.768265	726.011902	767.398438	733.516418	18.132750
224.144302	732.773376	768.958801	730.470032	-6.365394
224.520294	721.182129	773.788574	738.717590	33.333294
224.896286	716.055237	773.565613	739.460632	40.697693
225.272217	717.467102	775.868958	735.968445	31.679375
225.648148	727.052185	778.766785	732.550537	10.632108
226.024048	724.971619	770.890686	735.002502	21.844704
226.399902	719.621826	769.256104	741.243958	43.562901
226.775772	711.225586	763.237549	743.695984	62.428711
227.151581	718.433044	765.318054	741.541199	49.286873
227.527374	715.015137	761.825867	733.070740	38.571507
227.903137	718.730164	761.454346	725.640442	16.174162
228.278870	716.798340	758.184875	723.857178	17.055880
228.654572	717.392761	757.887695	732.104736	36.330410
229.030273	717.764343	762.271667	737.380188	44.073296
229.405930	715.683777	765.838135	736.117004	40.740681
229.781555	728.166687	768.736023	730.618652	6.043888
230.157181	736.562927	762.568848	728.761047	-30.000399
230.532761	736.934387	764.723633	735.002502	-6.951915
230.908325	730.767273	770.221985	738.717712	20.150799
231.283859	726.383484	775.348877	735.819885	19.271572
231.659332	727.572266	772.674011	730.841614	7.248828
232.034821	728.612488	765.838135	726.531982	-5.588903
232.410263	719.696228	766.432556	722.593994	6.200243
232.785690	721.033630	767.844238	713.454651	-16.190731
233.161087	721.925293	768.067200	712.488770	-20.451092
233.536469	724.377197	763.980652	715.312256	-22.889269
233.911804	722.816895	763.757629	721.182129	-3.993005
234.287140	721.776611	764.277832	722.148132	0.874142
234.662430	727.646484	768.661621	724.228577	-8.333283
235.037704	723.782898	774.234375	730.470032	13.254584
235.412933	725.268860	773.937073	731.510254	12.824375
235.788162	720.067688	769.479004	736.042725	32.330727
236.163345	718.730286	764.649231	732.550537	30.097057
236.538513	716.724060	769.776123	745.181946	53.641430
236.913635	716.575439	768.290100	744.661865	54.310375
237.288742	720.884949	764.500671	749.045715	64.565628
237.663834	718.655945	757.070496	740.426575	56.672874
238.038879	724.302917	762.717468	736.785828	32.495266
238.413910	719.547546	763.906311	728.241028	19.598114
238.788910	719.324646	766.135437	728.538147	19.682430
239.163879	718.432922	767.175598	733.962219	31.859755
239.538834	713.751953	763.311829	746.519348	66.116783
239.913757	718.655945	764.575012	746.965149	61.650215
240.288651	715.015076	763.757629	737.825989	46.798763
240.663528	723.782776	773.268372	727.646484	7.807744
241.038361	720.513489	777.355042	724.600098	7.189475
241.413177	722.593994	773.417053	726.160461	7.017419
241.787979	725.640320	766.061035	726.383484	1.838572
242.162735	728.092346	765.466614	722.148132	-15.904563
242.537476	725.937500	770.444885	720.067688	-13.188400
242.912170	720.884949	777.949463	726.680664	10.156426
243.286865	718.135742	779.212646	732.847717	24.087624
243.661514	713.157532	780.104309	743.547363	45.394016
244.036148	719.176025	779.212646	736.562805	28.960291
244.410751	725.417480	776.389160	732.996277	14.868642
244.785339	735.076843	776.166260	731.138733	-9.584245
245.159882	736.711487	776.983582	731.807434	-12.177298
245.534378	732.476135	785.231140	740.352295	14.929692
245.908890	726.160461	784.859619	736.637207	17.848204
246.283356	726.457703	777.652283	737.305908	21.190145
246.657791	725.343201	766.878418	734.631042	22.361366
247.032196	731.510254	772.228210	735.819824	10.583955
247.406586	725.640320	783.522217	739.757813	24.390169
247.780960	728.463867	787.311707	738.494812	17.045563
248.155289	727.795166	783.002136	733.144958	9.690430
248.529602	722.965515	777.726563	732.253235	16.960449
248.903870	724.674500	784.339539	730.767273	10.211631
249.278122	717.095520	784.265320	729.132568	17.920328
249.652344	720.513489	784.116638	727.497864	10.981178
250.026550	713.751892	774.085754	725.566101	19.581390
250.400711	712.785950	780.178528	739.014832	38.919540
250.774857	713.900452	777.726563	732.253235	28.754351
251.148987	719.027405	783.968018	734.853821	24.370598
251.523071	724.674377	777.726563	728.389587	7.002935
251.897125	728.686829	783.447937	741.689758	23.744825
252.271164	723.559875	778.766785	741.689758	32.839882
252.645187	725.120300	776.389160	742.432800	33.768063
253.019165	726.234863	769.924805	741.243958	34.353661
253.393112	733.888000	777.132141	743.621582	22.508440
253.767044	729.652771	771.930969	752.537903	54.129864
254.140930	727.349304	781.293152	753.429626	48.347168
254.514801	722.148132	776.537781	754.915588	60.245758
254.888657	725.045898	782.110413	740.278015	26.692801
255.262466	731.287354	775.051697	736.785828	12.563822
255.636276	731.064453	781.441711	741.541199	20.796577
256.010010	732.922058	781.738953	748.525635	31.963476
256.383759	724.080017	780.847351	747.782532	41.753792
256.757446	730.098450	773.194092	744.810547	34.138248
257.131134	724.451477	775.646057	739.163391	28.737249
257.504791	724.228577	776.983459	737.825989	25.774698
257.878418	715.460938	775.720398	732.401855	28.113293
258.252014	723.782776	780.550049	735.448303	20.549740
258.625580	720.885010	788.797668	736.191406	22.538355
258.999115	729.875671	794.073242	730.024231	0.231410
259.372650	726.680603	793.701660	720.216309	-9.645169
259.746124	727.274963	791.546875	716.352539	-16.994087
260.119598	728.463867	791.398254	723.336914	-8.146505
260.493042	729.281250	796.822449	739.832214	15.621524
260.866425	728.166687	803.806824	745.553528	22.986263
261.239838	717.318420	810.048340	743.770264	28.525684
261.613159	708.922302	806.556152	734.110901	25.799042
261.986511	712.340149	801.800720	729.652649	19.352100
262.359802	720.513489	792.067078	730.395813	13.811081
262.733063	728.761169	789.020569	734.259521	9.124472
263.106293	725.937683	777.726563	732.327637	12.338467
263.479523	719.398926	785.008240	729.355530	15.175595
263.852692	719.696106	791.026855	737.825989	25.416645
264.225861	719.844788	802.172180	740.278015	24.819475
264.598969	730.990173	798.085632	739.014832	11.960062
264.972076	724.674500	792.587158	730.321472	8.315052
265.345154	726.531982	796.896729	734.408142	11.193332
265.718201	715.906738	803.509583	739.534973	26.971994
266.091217	729.801331	809.676758	748.897156	23.907009
266.464203	733.590820	815.323730	749.788757	19.818132
266.837158	739.014893	813.391846	750.531799	15.484510
267.210114	724.748718	820.673523	739.386414	15.259552
267.583038	719.770508	827.360779	739.460632	18.301027
267.955902	717.689941	834.419617	735.745544	15.467877
268.328766	722.965515	824.463074	737.380188	14.201990
268.701569	727.052063	813.168945	732.550537	6.384897
269.074371	719.473206	808.710754	732.401917	14.487972
269.447144	712.488770	815.992493	737.603088	24.264170
269.819885	709.591003	820.896484	741.021057	28.237652
270.192596	716.129700	825.577454	745.702148	27.019695
270.565277	730.767334	831.670349	745.553528	14.653867
270.937927	739.609375	831.150208	749.342957	10.633049
271.310577	735.671326	834.419617	755.510071	20.090216
271.683136	726.011902	824.165771	752.017822	26.495054
272.055725	717.690002	829.812805	745.107666	24.453245
272.428284	717.764343	830.555847	733.219238	13.702180
272.800812	720.364929	841.849854	735.002625	12.048981
273.173279	726.977783	836.351379	731.733215	4.347879
273.545776	735.522644	833.527893	737.008728	1.516331
273.918152	729.281250	831.075989	737.751709	8.321116
274.290558	719.621887	832.339111	740.055115	18.127867
274.662964	713.528992	837.094482	738.569031	20.264589
275.035278	720.439148	836.648621	739.089172	16.048626
275.407593	725.045898	836.500000	741.318359	14.600145
275.779907	724.822998	845.787842	741.689758	13.943522
276.152161	716.278259	852.846497	735.151184	13.819410
276.524384	712.934570	862.654541	738.494812	17.072033
276.896606	713.157410	861.242859	730.990234	12.042253
277.268799	719.027344	865.775391	732.401917	9.113970
277.640930	724.525818	863.026123	731.436035	4.989316
278.013031	731.138733	860.351257	736.637207	4.255373
278.385162	730.321472	854.704285	739.534973	7.407375
278.757233	722.296692	855.372864	735.968445	10.273629
279.129272	719.844727	859.608154	741.243958	15.311038
279.501282	718.953125	863.026062	738.048889	13.254234
279.873230	723.559875	869.861877	736.339905	8.735375
280.245178	724.971680	875.806152	734.705322	6.453195
280.617126	721.182312	877.589355	738.717590	11.211309
280.988983	715.015137	878.258118	743.175781	17.250753
281.360870	716.724060	885.465515	748.748535	18.978428
281.732697	721.702332	894.679016	744.364685	13.101392
282.104492	731.138733	902.778015	738.940613	4.545509
282.476288	730.544373	901.960754	724.451477	-3.554442
282.848053	732.253357	908.945129	722.593994	-5.466787
283.219757	730.321472	915.409485	734.333801	2.167795
283.591461	725.194519	924.474426	744.216003	9.545109
283.963135	726.086121	923.954285	749.714417	11.941434
284.334747	736.637146	924.845947	743.398682	3.592571
284.706360	734.779602	925.291809	749.268555	7.605262
285.077942	734.333801	936.362976	747.039551	6.289067
285.449524	715.460876	947.359680	746.742371	13.489286
285.821014	713.157532	955.235779	738.866272	10.620012
286.192535	711.225647	957.687805	741.763977	12.390677
286.563995	715.609436	967.198547	744.884766	11.636168
286.935425	715.832458	964.300781	751.274719	14.264297
287.306824	719.027527	964.597961	754.915588	14.614162
287.678223	713.751953	954.418457	754.098328	16.764433
288.049561	726.011963	955.235779	754.024109	12.220434
288.420898	724.154358	952.783752	748.079773	10.464715
288.792145	732.327637	952.486572	746.519470	6.446177
289.163452	729.504150	958.876526	740.203613	4.664670
289.534668	737.454529	966.975586	740.649475	1.392006
289.905914	737.380188	972.548340	735.894104	-0.631924
290.277039	735.745544	985.105469	737.083008	0.536359
290.648193	735.299744	1001.229187	738.420410	1.173494
291.019318	731.881836	1010.591248	741.541199	3.465747
291.390381	724.451599	1006.727539	737.305908	4.553810
291.761475	708.996582	995.582214	730.544373	7.518796
292.132507	712.042969	994.616211	734.854004	8.072610
292.503510	715.758118	1004.126953	737.305969	7.472323
292.874481	729.727051	1021.439453	750.085999	6.979116
293.245422	727.572266	1028.126709	742.358582	4.919680
293.616364	724.600159	1034.442383	743.918884	6.235020
293.987213	717.912903	1029.464233	735.151123	5.533027
294.358093	718.061523	1047.073975	736.042725	5.465204
294.728943	714.940857	1060.448364	732.253235	5.010710
295.099731	711.745789	1076.720825	726.383362	4.010568
295.470490	717.467041	1094.776245	729.652649	3.229608
295.841248	720.736328	1105.773193	734.556641	3.589348
296.211975	722.073792	1118.999146	738.717590	4.193181
296.582642	719.547546	1123.902954	739.237793	4.869540
296.953308	719.770508	1133.116577	737.677429	4.332186
297.323883	724.005676	1144.410400	740.723877	3.976692
297.694519	720.364929	1144.113281	743.250183	5.400671
298.065063	719.993408	1146.565308	744.736145	5.800367
298.435608	721.107910	1139.952271	742.358398	5.073600
298.806122	729.429871	1132.447754	738.271790	2.193927
299.176575	731.584534	1129.252808	738.717590	1.793720
299.547028	728.761047	1123.680054	744.067444	3.875832
299.917450	722.148132	1121.525269	741.466858	4.837214
300.287872	721.702332	1114.317993	737.900330	4.125663
300.658234	725.937561	1115.952515	727.200684	0.323865
301.028564	727.795166	1120.782227	728.166687	0.094538
301.398865	726.977844	1122.714111	734.259521	1.840033
301.769135	722.891113	1129.995728	749.417236	6.515800
302.139374	716.575439	1132.893555	754.246887	9.048717
302.509583	716.129639	1126.354980	746.816589	7.480511
302.879791	713.454773	1118.850464	749.045715	8.779309
303.249939	715.832458	1116.026855	746.816650	7.742285
303.620087	718.804504	1127.172241	752.017822	8.133188
303.990173	720.810730	1130.367310	744.884766	5.878073
304.360260	721.182190	1138.837891	747.856873	6.386764
304.730286	724.600159	1140.472412	744.958984	4.895452
305.100281	722.891174	1142.552856	739.014832	3.842061
305.470276	728.166687	1135.345581	738.271790	2.481735
305.840179	722.668274	1137.203125	740.278015	4.248073
306.210144	719.621887	1140.249634	745.627869	6.182660
306.579987	719.473328	1152.658081	748.079773	6.603752
306.949890	714.049133	1159.345337	742.061279	6.290677
307.319702	718.878845	1177.846680	746.965271	6.119476
307.689484	714.494934	1184.905396	740.352295	5.496766
308.059265	725.789001	1204.298462	745.181946	4.052782
308.429016	727.497986	1212.174683	731.510315	0.827836
308.798737	726.531982	1233.722412	736.340027	1.933799
309.168396	725.863281	1243.456055	740.278015	2.784956
309.538055	714.346375	1256.533325	744.736145	5.605035
309.907684	719.324646	1268.793213	744.587585	4.597704
310.277313	714.569336	1281.796143	743.175781	5.043211
310.646851	723.559875	1294.353394	737.231628	2.395219
311.016388	717.764343	1306.241821	732.996338	2.588373
311.385895	724.525818	1312.483276	737.603088	2.224186
311.755371	723.931396	1314.415039	743.472961	3.309417
312.124817	722.148132	1313.300537	742.581360	3.456507
312.494232	719.993347	1310.254272	734.853821	2.517611
312.863617	721.330811	1307.876343	741.615417	3.458318
313.232971	724.377258	1304.978638	748.228333	4.107995
313.602295	719.473328	1306.910522	750.977539	5.362992
313.971619	717.095520	1316.049805	738.420410	3.560354
314.340820	721.702332	1320.359253	734.259460	2.097550
314.710083	729.058350	1331.430542	738.569092	1.578881
315.079285	730.618652	1344.433472	749.788757	3.123109
315.448486	729.652649	1366.204102	749.491516	3.116616
315.817596	717.838562	1358.328003	743.027283	3.932730
316.186707	719.621765	1352.532349	746.147949	4.191143
316.555786	717.169739	1331.950684	745.702087	4.641059
316.924866	724.080017	1334.551147	746.445129	3.663582
317.293884	713.083191	1332.322144	741.541199	4.595643
317.662872	709.293762	1336.557251	749.491516	6.408432
318.031830	709.739563	1343.393066	742.804382	5.218123
318.400757	724.154297	1354.538574	745.107666	3.323904
318.769684	724.897278	1368.730469	740.426697	2.412025
319.138550	717.244141	1373.188599	742.209900	3.806078
319.507416	713.306152	1378.092407	744.959167	4.761382
319.876190	713.603333	1378.909790	740.946777	4.109902
320.244995	717.541321	1387.157593	751.794983	5.115417
320.613770	719.547546	1381.064819	742.878662	3.526910
320.982483	724.228699	1377.869629	744.364685	3.080588
321.351166	727.572266	1367.690063	737.825989	1.601849
321.719818	725.120178	1363.826294	745.627869	3.210818
322.088440	727.646545	1368.730347	745.999329	2.862774
322.457062	730.395752	1385.225586	745.776367	2.348796
322.825623	721.925232	1408.705200	747.931152	3.786645
323.194183	717.021179	1418.884766	743.695984	3.800568
323.562653	710.408264	1439.912476	743.473083	4.532506
323.931183	719.621826	1457.596558	734.185242	1.973430
324.299591	719.398926	1492.741821	739.163513	2.555734
324.668060	724.228699	1513.100586	747.559753	2.957521
325.036407	724.302917	1536.654663	749.120056	3.054975
325.404755	725.937683	1552.555298	747.485352	2.606727
