Jaz Data File
++++++++++++++++++++++++++++++++++++
Date: Fri Jun 04 16:58:17 2021
User: jaz
Dark Spectrum Present: Yes
Reference Spectrum Present: Yes
Processed Spectrum Present: Yes
Spectrometers: JAZA3586
Integration Time (usec): 24100 (JAZA3586)
Spectra Averaged: 10 (JAZA3586)
Boxcar Smoothing: 1 (JAZA3586)
Correct for Electrical Dark: No (JAZA3586)
Strobe/Lamp Enabled: Yes (JAZA3586)
Correct for Detector Non-linearity: No (JAZA3586)
Correct for Stray Light: No (JAZA3586)
Number of Pixels in Processed Spectrum: 2048
>>>>>Begin Processed Spectral Data<<<<<
W	D	R	S	P
191.335022	0.000000	0.000000	0.000000	0.000000
191.713211	231.750168	230.487076	231.230103	41.173985
192.091385	464.689209	467.364166	469.221710	169.442001
192.469528	703.795410	704.909973	705.950195	193.330048
192.847641	708.996582	712.340149	716.724060	231.114807
193.225739	713.974854	721.850891	721.702332	98.113777
193.603790	717.392822	729.429871	728.835388	95.061226
193.981842	725.045959	740.055176	729.875671	32.178307
194.359863	737.974609	736.934387	732.327637	542.862183
194.737854	747.708252	733.293640	732.624817	104.639900
195.115829	752.315125	732.699219	736.117004	82.576454
195.493774	749.788757	734.259521	736.711426	84.211044
195.871704	748.377014	739.906494	746.742371	19.298031
196.249603	748.005554	740.203674	749.640137	-20.951138
196.627457	749.714417	744.290344	752.686523	-54.794750
197.005310	746.816711	745.924988	745.553467	141.663239
197.383133	747.931213	747.782532	744.736145	2148.932617
197.760910	747.039551	745.850769	741.763977	443.779846
198.138687	748.674255	741.764099	742.804260	84.947357
198.516449	749.268616	737.603088	737.454590	101.272972
198.894180	746.965149	734.482422	739.906555	56.546890
199.271866	744.884766	737.900391	739.089172	82.979408
199.649536	743.250183	736.934387	736.340027	109.410698
200.027191	745.627747	734.482422	736.785828	79.332985
200.404816	744.884766	732.179016	728.909668	125.731247
200.782410	740.872375	747.708313	736.191345	-68.476784
201.159988	739.312073	758.333557	732.996338	-33.203167
201.537537	734.556702	767.621399	738.420410	11.685298
201.915070	731.213074	765.095032	743.398743	35.965069
202.292557	724.005676	764.723572	749.714417	63.138676
202.670029	717.987305	765.466614	753.058105	73.865440
203.047485	717.021301	764.426331	745.033386	59.090958
203.424911	717.169922	765.243713	740.203674	47.913326
203.802292	721.628113	761.157043	748.748535	68.609047
204.179688	721.256531	755.510071	748.079773	78.307945
204.557037	730.915833	760.414063	750.308838	65.742943
204.934357	729.875671	756.847473	742.507080	46.831905
205.311661	731.584656	763.609131	741.689758	31.554312
205.688934	719.770447	756.104492	739.683594	54.805752
206.066177	718.210144	767.027039	732.550598	29.376007
206.443390	713.083191	763.311829	733.813721	41.272331
206.820587	712.414490	766.506836	732.624817	37.362637
207.197769	702.606445	753.206726	742.507080	78.854568
207.574921	699.634338	752.092102	741.169617	79.178513
207.952042	708.327820	747.039551	739.683594	80.998116
208.329147	725.120300	753.801086	738.791992	47.668468
208.706223	742.061218	765.318054	748.154114	26.198299
209.083267	738.271790	769.256042	746.222229	25.659613
209.460297	734.853943	770.221985	737.603088	7.772965
209.837280	722.891174	754.692688	728.761047	18.457842
210.214264	717.764343	755.064209	726.383362	23.107372
210.591217	715.906738	754.841309	725.417480	24.427500
210.968124	721.107971	762.345886	720.587708	-1.261615
211.345016	727.126465	763.386169	721.033630	-16.803320
211.721893	730.395813	762.866028	724.971680	-16.704950
212.098724	733.293640	761.751465	734.408203	3.916543
212.475555	730.098572	760.488342	737.157410	23.227678
212.852356	726.457764	758.927917	741.615479	46.681992
213.229126	720.439270	756.327332	738.866211	51.345600
213.605865	718.730225	755.658691	738.717590	54.124550
213.982590	713.677734	755.212891	729.058289	37.030205
214.359283	703.349609	758.482178	724.377197	38.140049
214.735931	709.219482	760.859863	727.126465	34.676319
215.112579	717.095642	763.014648	732.030457	32.524254
215.489197	729.504150	757.441895	731.510315	7.180840
215.865799	719.398926	755.658691	728.389587	24.795145
216.242355	716.649719	748.377014	724.823059	25.761225
216.618896	712.414490	747.485413	719.473328	20.127323
216.995407	712.637390	749.343018	720.141907	20.445139
217.371902	708.030579	760.934143	728.463867	38.623653
217.748367	712.860352	761.677246	739.683594	54.946636
218.124802	720.067688	753.726807	740.129456	59.602772
218.501236	725.937561	750.160339	730.247131	17.791395
218.877609	718.432922	755.064270	724.228699	15.821903
219.253983	714.866455	758.779358	720.959290	13.874816
219.630295	714.940735	752.537903	722.445496	19.960974
220.006592	717.095520	750.754700	726.309082	27.373104
220.382889	718.804504	749.194336	730.990173	40.097851
220.759140	718.804443	749.120056	730.395752	38.235443
221.135391	717.838562	749.565857	725.045898	22.716516
221.511581	716.352539	755.584412	728.983948	32.196804
221.887772	714.643555	763.237549	732.401855	36.544231
222.263931	712.117371	765.318054	741.838318	55.865723
222.640060	713.603333	763.460449	737.083008	47.093929
223.016159	716.352539	762.123047	737.231628	45.616905
223.392212	728.166687	756.104492	728.538147	1.329596
223.768265	733.590759	757.070374	726.754883	-29.114092
224.144302	737.083008	764.500732	730.098572	-25.474163
224.520294	731.807434	773.491394	729.132568	-6.417015
224.896286	724.154297	774.531555	725.937500	3.539699
225.272217	719.250305	768.810242	720.142029	1.799283
225.648148	726.160461	761.528564	722.371033	-10.714255
226.024048	731.064453	761.082703	723.188416	-26.237497
226.399902	727.349304	765.986633	722.816895	-11.730650
226.775772	717.987244	770.444885	718.655945	1.274745
227.151581	712.340149	774.382996	718.433044	9.820464
227.527374	722.593933	763.757629	718.507324	-9.927702
227.903137	726.309082	763.534729	723.039795	-8.782351
228.278870	730.321350	758.853699	729.578430	-2.603781
228.654572	725.714661	757.887695	731.213135	17.090319
229.030273	726.011902	751.869202	735.745605	37.643929
229.405930	724.600159	751.794922	731.287354	24.590010
229.781555	717.838623	758.482239	735.522644	43.509960
230.157181	715.683838	760.934265	736.191345	45.320030
230.532761	711.745789	758.630798	740.278015	60.855755
230.908325	714.420654	756.996094	739.312073	58.464268
231.283859	719.844727	756.104492	736.562805	46.106415
231.659332	719.993347	760.562683	741.764099	53.663071
232.034821	723.336975	754.246887	739.757874	53.125023
232.410263	723.262695	752.686584	745.181946	74.494743
232.785690	731.436035	751.572021	745.256165	68.633980
233.161087	722.593994	756.401672	744.141663	63.736019
233.536469	711.745789	762.494446	730.098450	36.163837
233.911804	709.591003	764.426453	717.987122	15.311479
234.287140	719.324646	765.020813	724.525818	11.382074
234.662430	719.473206	764.575012	727.423645	17.627762
235.037704	719.324707	756.698914	735.894226	44.334103
235.412933	715.683777	756.624573	722.742615	17.241575
235.788162	717.541321	749.565918	724.154297	20.649677
236.163345	715.312317	757.887756	714.643555	-1.570770
236.538513	708.550781	757.739075	718.953125	21.148006
236.913635	710.556946	759.596680	721.925293	23.181910
237.288742	709.888184	755.658630	722.668274	27.922144
237.663834	714.272034	758.407898	734.185120	45.117699
238.038879	710.408264	758.036377	735.745605	53.198288
238.413910	712.265869	758.185059	736.265686	52.265331
238.788910	713.083191	757.813477	731.956055	42.192585
239.163879	715.609558	762.568848	737.305847	46.202335
239.538834	711.522766	772.302551	745.702148	56.234787
239.913757	714.049133	779.435547	735.671204	33.068138
240.288651	719.547546	785.751282	733.070740	20.426632
240.663528	728.018066	783.967957	717.392822	-18.990643
241.038361	719.919128	778.841125	724.080078	7.061793
241.413177	719.547546	769.330383	716.575500	-5.970021
241.787979	716.129639	769.553284	724.674377	15.994302
242.162735	723.559875	775.720398	718.953125	-8.831872
242.537476	715.535156	791.472595	714.420715	-1.467578
242.912170	713.529053	799.274353	717.689941	4.852614
243.286865	709.739563	791.621155	725.714661	19.509998
243.661514	720.067627	781.664612	738.717590	30.277397
244.036148	723.708496	778.098145	732.476257	16.120275
244.410751	735.522644	779.361267	724.080078	-26.101563
244.785339	730.841553	774.605896	713.231750	-40.237785
245.159882	726.680664	777.057861	715.312256	-22.566576
245.534378	718.284424	779.881348	718.655945	0.603149
245.908890	720.290527	791.249695	724.080017	5.340381
246.283356	725.491760	786.865784	732.847717	11.985456
246.657791	728.092285	798.011230	737.825989	13.921411
247.032196	725.268860	804.326965	739.757874	18.327044
247.406586	724.897278	802.246399	740.946777	20.749428
247.780960	718.953125	801.280457	744.364685	30.866493
248.155289	713.974792	809.750977	740.352295	27.540773
248.529602	708.253479	819.484680	731.213074	20.641325
248.903870	720.885010	811.608643	724.228699	3.685577
249.278122	721.776672	802.692322	727.349365	6.887040
249.652344	723.485657	791.695496	726.680664	4.684086
250.026550	714.420715	798.977234	727.200684	15.114114
250.400711	718.210144	790.581055	726.457703	11.396235
250.774857	720.885010	795.559265	725.937561	6.766122
251.148987	720.513428	790.209473	724.080017	5.117348
251.523071	725.268860	802.989502	728.240967	3.824090
251.897125	726.606262	804.549866	730.990051	5.624309
252.271164	726.457703	817.478577	731.361633	5.387699
252.645187	715.535217	809.230957	725.714600	10.864296
253.019165	706.767517	813.094727	720.364929	12.788271
253.393112	711.745789	808.636536	721.553711	10.122662
253.767044	718.953125	809.825378	726.086182	7.849543
254.140930	723.114075	807.373352	736.637207	16.049429
254.514801	716.352539	796.227966	739.312073	28.744177
254.888657	714.792175	799.348694	738.940613	28.558931
255.262466	719.993408	802.989563	731.361633	13.697291
255.636276	719.398987	809.453857	731.733215	13.696348
256.010010	724.897278	819.559082	733.293457	8.869659
256.383759	723.336975	817.181335	726.086121	2.929473
256.757446	732.401917	832.339111	727.795105	-4.609707
257.131134	731.138733	826.320557	728.612488	-2.654125
257.504791	722.222473	834.939697	739.089172	14.963728
257.878418	715.832458	836.945801	735.522705	16.257702
258.252014	711.448547	849.280090	729.578430	13.153653
258.625580	718.730225	855.075684	725.789063	5.177171
258.999115	718.284424	861.317139	721.925293	2.545480
259.372650	718.507324	866.964172	715.386658	-2.102070
259.746124	718.507324	891.558350	717.912903	-0.343495
260.119598	715.535156	914.443542	720.587830	2.540201
260.493042	714.123474	934.208008	728.983948	6.752166
260.866425	711.076965	933.465027	732.327637	9.555671
261.239838	716.129639	921.130859	728.984070	6.270417
261.613159	719.696228	905.452942	730.321472	5.719978
261.986511	724.302917	895.942322	721.628113	-1.558386
262.359802	720.439209	886.728699	722.371094	1.161760
262.733063	719.919006	877.589417	722.593994	1.696569
263.106293	710.705505	875.806152	726.829163	9.765957
263.479523	710.705566	876.177673	732.847717	13.381198
263.852692	715.832458	882.121887	734.928223	11.483451
264.225861	721.999573	877.960938	741.838379	12.720334
264.598969	722.073792	878.332458	739.832214	11.364760
264.972076	712.785950	875.806152	741.764099	17.775803
265.345154	714.643555	880.041443	742.209961	16.666721
265.718201	715.386536	886.059998	745.479187	17.631710
266.091217	719.101746	898.394226	751.423523	18.027403
266.464203	719.027405	909.911133	752.686584	17.633341
266.837158	720.959290	918.678772	748.822815	14.092453
267.210114	721.330811	930.047119	739.163391	8.543933
267.583038	722.371094	933.167786	726.977844	2.185400
267.955902	723.114075	934.876892	727.869446	2.245612
268.328766	719.250305	925.589050	728.018066	4.249207
268.701569	713.826172	931.607605	738.271790	11.224840
269.074371	717.318420	934.208069	736.191345	8.701626
269.447144	720.290588	953.378235	728.984070	3.729705
269.819885	725.789001	954.567078	722.445313	-1.461543
270.192596	725.417480	978.566833	724.823059	-0.234811
270.565277	728.538147	986.071289	725.491760	-1.182911
270.937927	733.590759	1010.814148	728.018066	-2.010181
271.310577	725.863281	1025.451782	725.268860	-0.198413
271.683136	723.411316	1054.801392	732.773438	2.825106
272.055725	712.711731	1071.148071	732.104736	5.410446
272.428284	717.244202	1079.915649	734.408142	4.732642
272.800812	713.603333	1073.154175	734.853943	5.910321
273.173279	713.826172	1068.621704	739.832214	7.329867
273.545776	714.494934	1064.980835	745.181946	8.755563
273.918152	716.055237	1064.163452	749.120056	9.498431
274.290558	716.352539	1056.659058	741.020996	7.248893
274.662964	715.015137	1049.154419	737.528809	6.737811
275.035278	721.999512	1049.674561	733.962341	3.650821
275.407593	723.337097	1056.881958	737.528809	4.254813
275.779907	723.188477	1070.702271	736.562805	3.848575
276.152161	720.290588	1076.497803	730.841614	2.962047
276.524384	725.937561	1088.683472	727.497986	0.430170
276.896606	727.126465	1102.429321	730.321472	0.851314
277.268799	723.411316	1116.918335	730.692871	1.850426
277.640930	712.860291	1125.463257	729.058289	3.925807
278.013031	711.671387	1130.590210	727.052185	3.671546
278.385162	710.036804	1136.757324	734.779602	5.798361
278.757233	708.402161	1138.837891	738.791931	7.060234
279.129272	709.516663	1138.317749	728.166565	4.349313
279.501282	710.556946	1136.831665	724.302917	3.224674
279.873230	713.231873	1147.531250	725.045898	2.720249
280.245178	710.854187	1163.060547	731.510254	4.567841
280.617126	720.810730	1195.753784	733.144958	2.596991
280.988983	728.612488	1225.400513	729.504089	0.179473
281.360870	729.429871	1246.279541	731.361633	0.373757
281.732697	717.095520	1260.174194	722.445313	0.985086
282.104492	715.609558	1279.938599	727.795105	2.159298
282.476288	721.925293	1306.539063	726.829285	0.838843
282.848053	721.999573	1327.938232	733.962219	1.974234
283.219757	718.804504	1330.687500	737.825989	3.108680
283.591461	708.699402	1322.885620	741.021057	5.262517
283.963135	710.259766	1312.111694	742.135559	5.296285
284.334747	712.637390	1313.151978	739.163574	4.417242
284.706360	716.946960	1336.334351	737.305908	3.286949
285.077942	720.439209	1372.817017	733.144958	1.947606
285.449524	719.696228	1415.689819	730.915833	1.612027
285.821014	720.439148	1436.494507	732.847656	1.732898
286.192535	721.776611	1461.757324	735.671204	1.877697
286.563995	716.278137	1475.429077	740.054993	3.132033
286.935425	716.278137	1499.577515	738.569031	2.845769
287.306824	714.272034	1509.534180	739.832214	3.214057
287.678223	721.330811	1499.429077	735.745605	1.852567
288.049561	719.176025	1473.422974	730.470032	1.497388
288.420898	719.027405	1444.519165	728.686768	1.331423
288.792145	724.377136	1444.593628	730.544373	0.856303
289.163452	729.504089	1457.373535	737.157288	1.051452
289.534668	728.983948	1481.967773	735.671204	0.888101
289.905914	722.073792	1509.756958	736.117004	1.782851
290.277039	721.107910	1545.199341	735.299805	1.722126
290.648193	726.754883	1577.223755	747.336731	2.420059
291.019318	729.355469	1602.040894	744.959167	1.788010
291.390381	728.538269	1614.077759	745.925049	1.963411
291.761475	723.262695	1609.619751	739.832214	1.869395
292.132507	724.154297	1597.137085	742.432800	2.093799
292.503510	722.965515	1580.344604	740.203674	2.010565
292.874481	730.618652	1574.251587	743.398743	1.514888
293.245422	724.005676	1578.486938	747.113831	2.704349
293.616364	722.445374	1605.310181	739.237793	1.902038
293.987213	711.002747	1643.799194	728.538147	1.879874
294.358093	721.107910	1689.718140	720.959290	-0.015344
294.728943	721.850891	1737.197632	734.705322	1.266014
295.099731	729.949951	1782.373657	739.832214	0.939000
295.470490	722.816895	1808.602539	742.507080	1.813451
295.841248	721.479431	1826.880859	729.058350	0.685626
296.211975	712.191589	1846.125366	725.640381	1.186030
296.582642	713.454773	1891.078613	724.377258	0.927502
296.953308	708.327820	1955.870483	728.909729	1.649796
297.323883	710.705566	2002.383911	731.287354	1.593414
297.694519	707.138977	2029.430176	733.367859	1.983593
298.065063	708.847961	2017.096069	738.346130	2.254784
298.435608	715.312317	2000.377930	735.968445	1.607399
298.806122	729.504150	1950.817993	733.962219	0.365022
299.176575	737.603088	1900.737915	727.497986	-0.868782
299.547028	736.637207	1858.831177	727.126404	-0.847519
299.917450	725.789001	1840.478516	734.333801	0.766563
300.287872	727.423645	1834.236938	749.640137	2.007248
300.658234	723.262695	1829.333008	753.875427	2.767702
301.028564	724.748779	1830.076172	749.417236	2.231778
301.398865	721.850891	1829.407349	741.243958	1.750978
301.769135	725.491760	1826.435181	737.380188	1.079840
302.139374	723.411316	1837.877930	736.785828	1.200082
302.509583	719.473206	1846.348267	729.949951	0.929717
302.879791	721.702332	1837.654907	736.042786	1.285041
303.249939	719.101746	1816.701538	732.401917	1.211750
303.620087	718.804504	1795.450806	726.977844	0.759148
303.990173	711.820068	1799.686157	715.238037	0.314190
304.360260	716.575500	1806.299194	717.318542	0.068186
304.730286	717.764343	1815.141235	724.897400	0.650010
305.100281	719.324707	1814.546509	732.922058	1.241516
305.470276	715.312256	1821.902710	725.863281	0.953472
305.840179	709.516785	1836.688965	729.058289	1.733675
306.210144	710.482666	1848.503296	728.538269	1.586580
306.579987	714.940857	1857.716797	739.089172	2.113128
306.949890	723.559875	1866.187134	738.494812	1.307070
307.319702	727.795166	1883.945679	735.522644	0.668380
307.689484	725.566101	1911.660278	738.643372	1.102549
308.059265	718.358704	1950.297729	741.838379	1.905912
308.429016	710.705505	1994.805054	752.166504	3.228799
308.798737	707.956299	2037.603516	750.383240	3.190842
309.168396	713.751953	2069.033691	750.383118	2.702845
309.538055	718.804504	2103.881592	746.668030	2.011695
309.907684	712.934570	2123.869141	741.987000	2.059091
310.277313	706.693176	2158.642822	737.603027	2.128851
310.646851	699.634460	2176.252441	731.584534	2.163733
311.016388	706.544617	2189.552490	729.132568	1.523118
311.385895	709.962585	2191.781738	729.058289	1.288666
311.755371	711.374268	2193.639404	733.516418	1.493805
312.124817	714.049133	2208.722900	735.225403	1.416782
312.494232	717.318542	2197.354492	736.265625	1.280177
312.863617	720.736389	2195.719971	734.036621	0.901721
313.232971	716.724060	2169.490967	733.293518	1.140545
313.602295	715.683777	2162.803711	736.265625	1.422263
313.971619	715.980957	2159.979980	733.813660	1.234953
314.340820	715.163635	2174.692139	732.922058	1.216723
314.710083	719.101746	2200.326416	734.110840	1.013290
315.079285	717.541321	2236.883545	738.048828	1.349762
315.448486	718.581604	2265.564209	742.952881	1.575407
315.817596	716.501160	2266.530029	743.250183	1.725711
316.186707	716.724121	2231.682373	746.742371	1.981457
316.555786	716.724060	2196.982910	742.209900	1.721715
316.924866	711.820068	2163.695313	743.175842	2.159674
317.293884	716.352539	2145.713867	737.454529	1.476323
317.662872	716.278137	2137.466553	744.216064	1.965814
318.031830	719.844727	2150.097900	738.271790	1.288378
318.400757	717.987122	2167.781982	738.123291	1.388898
318.769684	722.742493	2176.921143	736.191406	0.924846
319.138550	723.485535	2190.369873	736.042786	0.856049
319.507416	722.296692	2205.453369	736.785828	0.976912
319.876190	722.742493	2226.035156	731.510315	0.583241
320.244995	724.748718	2237.403564	734.556702	0.648395
320.613770	724.154297	2217.638916	731.287415	0.477616
320.982483	724.823059	2204.413086	739.386414	0.984283
321.351166	725.714661	2166.667236	736.860107	0.773478
321.719818	720.364929	2159.534424	742.432800	1.533376
322.088440	715.683777	2157.825195	738.940613	1.612660
322.457062	705.429993	2177.961182	733.293518	1.892220
322.825623	714.643555	2211.917725	731.584534	1.131455
323.194183	719.398926	2252.709961	733.442200	0.915879
323.562653	722.742493	2309.328369	744.810547	1.390915
323.931183	720.587830	2376.275391	745.850769	1.525828
324.299591	714.569336	2445.451172	741.689758	1.566856
324.668060	719.844788	2502.218506	737.677429	1.000500
325.036407	720.513489	2542.862305	740.352295	1.088639
