Jaz Data File
++++++++++++++++++++++++++++++++++++
Date: Fri Jun 04 17:02:33 2021
User: jaz
Dark Spectrum Present: Yes
Reference Spectrum Present: Yes
Processed Spectrum Present: Yes
Spectrometers: JAZA3586
Integration Time (usec): 121000 (JAZA3586)
Spectra Averaged: 10 (JAZA3586)
Boxcar Smoothing: 1 (JAZA3586)
Correct for Electrical Dark: No (JAZA3586)
Strobe/Lamp Enabled: Yes (JAZA3586)
Correct for Detector Non-linearity: No (JAZA3586)
Correct for Stray Light: No (JAZA3586)
Number of Pixels in Processed Spectrum: 2048
>>>>>Begin Processed Spectral Data<<<<<
W	D	R	S	P
191.335022	0.000000	0.000000	0.000000	0.000000
191.713211	225.805969	227.812134	226.400391	29.629742
192.091385	456.738800	461.791412	453.618073	-61.764633
192.469528	686.482849	693.913086	684.550964	-26.000313
192.847641	699.188538	708.030579	695.622070	-40.335339
193.225739	716.501160	719.696106	714.569336	-60.464985
193.603790	733.145020	731.584656	734.928223	-114.281242
193.981842	736.117004	733.962341	744.513245	-389.677643
194.359863	734.779602	737.157227	746.890930	509.387756
194.737854	737.380188	747.931152	751.646301	135.211456
195.115829	753.281067	748.154114	751.720642	30.435715
195.493774	759.596680	749.268616	750.234619	90.646812
195.871704	762.791748	744.810547	742.952942	110.330818
196.249603	761.082825	753.726807	748.525574	170.707184
196.627457	756.178772	751.051941	744.884766	220.292145
197.005310	760.191162	749.640137	742.878601	164.084152
197.383133	755.361511	742.358459	741.912659	103.428429
197.760910	755.955872	743.918762	748.748535	59.875973
198.138687	748.376953	747.188171	753.726807	-450.028229
198.516449	743.324402	750.383240	751.497742	115.788742
198.894180	742.729980	741.764099	750.011719	-753.895752
199.271866	743.101563	731.138855	747.931213	-40.372559
199.649536	742.878601	726.606262	739.980774	17.808302
200.027191	743.324402	733.293518	739.089172	42.221897
200.404816	737.603088	736.191406	741.243958	-257.909973
200.782410	740.649597	748.525635	746.073669	68.868034
201.159988	736.934387	759.225281	745.107666	36.666447
201.537537	738.197571	773.937195	740.054993	5.197094
201.915070	729.058289	768.513000	738.494690	23.917046
202.292557	726.606262	768.587341	738.717590	28.849493
202.670029	726.531982	763.609070	737.083008	28.456997
203.047485	732.104675	771.187988	742.952942	27.756773
203.424911	730.692932	768.215820	743.101501	33.069336
203.802292	724.600098	763.386169	739.906433	39.463486
204.179688	724.377197	762.420227	741.987000	46.289169
204.557037	733.219238	762.568848	744.736145	39.240410
204.934357	733.070618	769.404602	758.928040	71.165939
205.311661	728.612488	767.175598	750.160339	55.876850
205.688934	716.575439	765.540833	746.593750	61.305157
206.066177	720.216309	764.575012	733.442139	29.815638
206.443390	713.900574	759.225281	731.287415	38.360626
206.820587	721.850891	755.435730	737.157288	45.575317
207.197769	727.646667	755.732910	748.005554	72.487045
207.574921	733.962341	758.482117	752.092102	73.939346
207.952042	727.646545	761.900085	750.606140	67.028381
208.329147	724.897400	759.522461	747.039551	63.948338
208.706223	763.757629	806.853210	795.113464	72.758820
209.083267	769.627625	809.156555	792.438660	57.707191
209.460297	771.039368	811.014160	794.370422	58.364418
209.837280	735.076843	764.946533	748.154114	43.781071
210.214264	730.247131	769.107422	743.473145	34.034779
210.591217	728.538147	770.444885	730.172852	3.900816
210.968124	728.983948	771.559509	730.470032	3.490463
211.345016	731.733215	767.472839	736.711487	13.929277
211.721893	731.361633	758.853699	738.791992	27.027285
212.098724	732.773438	756.030273	736.860107	17.571909
212.475555	732.847717	755.510071	733.442200	2.623216
212.852356	728.686768	758.779358	739.609314	36.296463
213.229126	726.829285	765.912415	742.358582	39.734016
213.605865	724.154297	762.643066	735.671204	29.922771
213.982590	721.776672	765.020813	733.145020	26.288757
214.359283	715.237976	762.494446	727.275085	25.471876
214.735931	709.591003	762.791748	733.888000	45.670406
215.112579	714.346375	757.367676	738.494812	56.131351
215.489197	719.250305	755.732910	743.250061	65.784103
215.865799	725.120300	759.819641	741.689697	47.751331
216.242355	716.575439	762.197266	735.745422	42.019325
216.618896	717.764221	760.785583	735.819824	41.968925
216.995407	718.135742	763.163269	730.172852	26.732779
217.371902	723.411316	764.129150	728.092346	11.496265
217.748367	732.922058	762.791687	722.445374	-35.074707
218.124802	731.138855	753.503906	727.200745	-17.608322
218.501236	730.024231	756.327393	729.875671	-0.564797
218.877609	718.878845	755.881592	728.240967	25.301153
219.253983	718.433044	758.705078	729.206848	26.752569
219.630295	725.491760	755.361511	737.677429	40.796017
220.006592	728.835449	750.903320	741.318176	56.565163
220.382889	730.024231	746.073669	737.157288	44.444275
220.759140	717.541321	745.107727	729.652771	43.935543
221.135391	716.426819	742.952942	729.578430	49.579849
221.511581	715.535156	752.760925	732.327637	45.109829
221.887772	723.485596	756.253113	732.699158	28.117973
222.263931	724.080078	772.079590	743.844543	41.176388
222.640060	724.005676	766.581238	749.417297	59.685932
223.016159	717.095520	767.621399	750.828918	66.764595
223.392212	719.919006	757.813477	740.798096	55.097984
223.768265	726.011902	767.398438	741.987000	38.599747
224.144302	732.773376	768.958801	743.250183	28.953112
224.520294	721.182129	773.788574	739.832214	35.452091
224.896286	716.055237	773.565613	741.020996	43.410877
225.272217	717.467102	775.868958	738.346130	35.750626
225.648148	727.052185	778.766785	737.231628	19.683887
226.024048	724.971619	770.890686	731.956055	15.210318
226.399902	719.621826	769.256104	729.949951	20.808453
226.775772	711.225586	763.237549	730.618652	37.285782
227.151581	718.433044	765.318054	730.247131	25.198004
227.527374	715.015137	761.825867	736.191406	45.238068
227.903137	718.730164	761.454346	744.661865	60.695606
228.278870	716.798340	758.184875	749.565735	79.174049
228.654572	717.392761	757.887695	743.770203	65.137634
229.030273	717.764343	762.271667	736.934387	43.071663
229.405930	715.683777	765.838135	731.287354	31.111109
229.781555	728.166687	768.736023	729.801270	4.029109
230.157181	736.562927	762.568848	729.429749	-27.429056
230.532761	736.934387	764.723633	728.835266	-29.144804
230.908325	730.767273	770.221985	732.327576	3.954668
231.283859	726.383484	775.348877	735.968445	19.574970
231.659332	727.572266	772.674011	729.875671	5.107132
232.034821	728.612488	765.838135	732.253235	9.780211
232.410263	719.696228	766.432556	728.092346	17.964865
232.785690	721.033630	767.844238	731.361633	22.063381
233.161087	721.925293	768.067200	733.962219	26.086756
233.536469	724.377197	763.980652	735.076843	27.016951
233.911804	722.816895	763.757629	734.928223	29.582586
234.287140	721.776611	764.277832	722.148193	0.874286
234.662430	727.646484	768.661621	720.736328	-16.847820
235.037704	723.782898	774.234375	733.813660	19.881998
235.412933	725.268860	773.937073	742.729980	35.877876
235.788162	720.067688	769.479004	748.154114	56.842091
236.163345	718.730286	764.649231	742.284180	51.294502
236.538513	716.724060	769.776123	743.473083	50.420326
236.913635	716.575439	768.290100	742.432800	50.000057
237.288742	720.884949	764.500671	740.500977	44.974670
237.663834	718.655945	757.070496	747.485352	75.048141
238.038879	724.302917	762.717468	748.674255	63.442986
238.413910	719.547546	763.906311	743.547302	54.103752
238.788910	719.324646	766.135437	733.144958	29.523775
239.163879	718.432922	767.175598	728.761047	21.189081
239.538834	713.751953	763.311829	733.739441	40.329979
239.913757	718.655945	764.575012	735.671204	37.054886
240.288651	715.015076	763.757629	737.008728	45.122078
240.663528	723.782776	773.268372	740.575195	33.933956
241.038361	720.513489	777.355042	735.002502	25.490179
241.413177	722.593994	773.417053	735.522644	25.438551
241.787979	725.640320	766.061035	730.693054	12.500359
242.162735	728.092346	765.466614	730.915833	7.554626
242.537476	725.937500	770.444885	731.658936	12.855025
242.912170	720.884949	777.949463	740.352295	34.114628
243.286865	718.135742	779.212646	748.971436	50.486668
243.661514	713.157532	780.104309	740.723877	41.176510
244.036148	719.176025	779.212646	737.825989	31.064312
244.410751	725.417480	776.389160	732.179016	13.265279
244.785339	735.076843	776.166260	742.878601	18.987268
245.159882	736.711487	776.983582	734.333801	-5.904052
245.534378	732.476135	785.231140	743.101501	20.140963
245.908890	726.160461	784.859619	734.185120	13.670823
246.283356	726.457703	777.652283	729.058289	5.079807
246.657791	725.343201	766.878418	722.668274	-6.440142
247.032196	731.510254	772.228210	720.067627	-28.102163
247.406586	725.640320	783.522217	726.457703	1.412156
247.780960	728.463867	787.311707	730.915833	4.166619
248.155289	727.795166	783.002136	736.191406	15.208660
248.529602	722.965515	777.726563	731.658936	15.875190
248.903870	724.674500	784.339539	725.863281	1.992426
249.278122	717.095520	784.265320	726.829285	14.491282
249.652344	720.513489	784.116638	736.711487	25.467289
250.026550	713.751892	774.085754	735.374023	35.837471
250.400711	712.785950	780.178528	744.216064	46.637352
250.774857	713.900452	777.726563	740.352295	41.443607
251.148987	719.027405	783.968018	740.203674	32.608669
251.523071	724.674377	777.726563	734.408020	18.347298
251.897125	728.686829	783.447937	738.271790	17.503227
252.271164	723.559875	778.766785	742.878601	34.993313
252.645187	725.120300	776.389160	739.386414	27.826078
253.019165	726.234863	769.924805	734.110840	18.026979
253.393112	733.888000	777.132141	730.544250	-7.732261
253.767044	729.652771	771.930969	730.247131	1.405832
254.140930	727.349304	781.293152	733.367859	11.157073
254.514801	722.148132	776.537781	741.392578	35.382553
254.888657	725.045898	782.110413	740.278015	26.692801
255.262466	731.287354	775.051697	734.482422	7.300620
255.636276	731.064453	781.441711	733.367859	4.572313
256.010010	732.922058	781.738953	736.860107	8.066980
256.383759	724.080017	780.847351	738.197510	24.869043
256.757446	730.098450	773.194092	733.219238	7.241541
257.131134	724.451477	775.646057	733.516418	17.706839
257.504791	724.228577	776.983459	737.677490	25.493212
257.878418	715.460938	775.720398	735.671326	33.538948
258.252014	723.782776	780.550049	739.534973	27.748730
258.625580	720.885010	788.797668	741.764099	30.744032
258.999115	729.875671	794.073242	737.825989	12.384141
259.372650	726.680603	793.701660	737.900330	16.740599
259.746124	727.274963	791.546875	737.974609	16.647469
260.119598	728.463867	791.398254	747.931152	30.932669
260.493042	729.281250	796.822449	750.085938	30.802959
260.866425	728.166687	803.806824	749.045715	27.603107
261.239838	717.318420	810.048340	749.788757	35.016029
261.613159	708.922302	806.556152	741.689758	33.561573
261.986511	712.340149	801.800720	733.367859	23.505003
262.359802	720.513489	792.067078	727.052185	9.138181
262.733063	728.761169	789.020569	730.395813	2.712678
263.106293	725.937683	777.726563	740.426697	27.977076
263.479523	719.398926	785.008240	747.782532	43.261551
263.852692	719.696106	791.026855	748.748535	40.729179
264.225861	719.844788	802.172180	741.912659	26.805016
264.598969	730.990173	798.085632	731.658875	0.996641
264.972076	724.674500	792.587158	729.652771	7.330403
265.345154	726.531982	796.896729	730.544434	5.702360
265.718201	715.906738	803.509583	735.002625	21.798248
266.091217	729.801331	809.676758	745.627747	19.813873
266.464203	733.590820	815.323730	753.280945	24.090815
266.837158	739.014893	813.391846	749.342957	13.886107
267.210114	724.748718	820.673523	740.500916	16.421402
267.583038	719.770508	827.360779	726.680664	6.422659
267.955902	717.689941	834.419617	728.018066	8.847900
268.328766	722.965515	824.463074	726.457703	3.440662
268.701569	727.052063	813.168945	732.550476	6.384826
269.074371	719.473206	808.710754	738.420410	21.232323
269.447144	712.488770	815.992493	743.695984	30.150814
269.819885	709.591003	820.896484	750.606140	36.849163
270.192596	716.129700	825.577454	754.544128	35.098415
270.565277	730.767334	831.670349	754.841309	23.858528
270.937927	739.609375	831.150208	747.708252	8.847283
271.310577	735.671326	834.419617	739.312073	3.686896
271.683136	726.011902	824.165771	742.507080	16.805428
272.055725	717.690002	829.812805	742.507080	22.133837
272.428284	717.764343	830.555847	743.027161	22.397802
272.800812	720.364929	841.849854	741.095398	17.064232
273.173279	726.977783	836.351379	742.655762	14.334335
273.545776	735.522644	833.527893	743.472961	8.112134
273.918152	729.281250	831.075989	738.346130	8.905058
274.290558	719.621887	832.339111	734.110840	12.854249
274.662964	713.528992	837.094482	735.151123	17.498520
275.035278	720.439148	836.648621	734.408020	12.020425
275.407593	725.045898	836.500000	740.798096	14.133349
275.779907	724.822998	845.787842	748.525574	19.594599
276.152161	716.278259	852.846497	748.674255	23.721472
276.524384	712.934570	862.654541	752.537903	26.451603
276.896606	713.157410	861.242859	750.234558	25.037672
277.268799	719.027344	865.775391	745.999329	18.379791
277.640930	724.525818	863.026123	748.228333	17.113691
278.013031	731.138733	860.351257	745.107666	10.810820
278.385162	730.321472	854.704285	746.222168	12.783676
278.757233	722.296692	855.372864	739.906494	13.232874
279.129272	719.844727	859.608154	737.900391	12.918733
279.501282	718.953125	863.026062	736.117126	11.913411
279.873230	723.559875	869.861877	731.436035	5.383494
280.245178	724.971680	875.806152	728.166687	2.118221
280.617126	721.182312	877.589355	736.785828	9.976223
280.988983	715.015137	878.258118	738.643372	14.474273
281.360870	716.724060	885.465515	745.702148	17.173071
281.732697	721.702332	894.679016	747.262451	14.776628
282.104492	731.138733	902.778015	750.680359	11.385287
282.476288	730.544373	901.960754	748.154114	10.273080
282.848053	732.253357	908.945129	753.949707	12.279208
283.219757	730.321472	915.409485	759.076599	15.535921
283.591461	725.194519	924.474426	758.333679	16.629454
283.963135	726.086121	923.954285	752.760925	13.481100
284.334747	736.637146	924.845947	749.863037	7.027244
284.706360	734.779602	925.291809	749.565918	7.761348
285.077942	734.333801	936.362976	743.993225	4.781202
285.449524	715.460876	947.359680	741.912659	11.406606
285.821014	713.157532	955.235779	744.810547	13.075531
286.192535	711.225647	957.687805	749.863037	15.676805
286.563995	715.609436	967.198547	741.987000	10.484382
286.935425	715.832458	964.300781	742.581482	10.765567
287.306824	719.027527	964.597961	742.135559	9.409941
287.678223	713.751953	954.418457	749.120056	14.695898
288.049561	726.011963	955.235779	756.698914	13.387331
288.420898	724.154358	952.783752	755.212891	13.584663
288.792145	732.327637	952.486572	755.361511	10.462384
289.163452	729.504150	958.876526	735.894104	2.785843
289.534668	737.454529	966.975586	729.801270	-3.334448
289.905914	737.380188	972.548340	724.823059	-5.339638
290.277039	735.745544	985.105469	739.014893	1.311096
290.648193	735.299744	1001.229187	746.073547	4.051377
291.019318	731.881836	1010.591248	744.513245	4.532107
291.390381	724.451599	1006.727539	735.076843	3.764134
291.761475	708.996582	995.582214	736.339905	9.541065
292.132507	712.042969	994.616211	744.513184	11.490902
292.503510	715.758118	1004.126953	748.079773	11.208443
292.874481	729.727051	1021.439453	759.745300	10.290358
293.245422	727.572266	1028.126709	760.191101	10.852887
293.616364	724.600159	1034.442383	762.420166	12.206215
293.987213	717.912903	1029.464233	746.890930	9.301205
294.358093	718.061523	1047.073975	749.417175	9.530232
294.728943	714.940857	1060.448364	744.067383	8.430070
295.099731	711.745789	1076.720825	742.581360	8.448680
295.470490	717.467041	1094.776245	744.364746	7.128823
295.841248	720.736328	1105.773193	742.655701	5.692799
296.211975	722.073792	1118.999146	741.987000	5.016865
296.582642	719.547546	1123.902954	733.442139	3.436233
296.953308	719.770508	1133.116577	740.723816	5.069192
297.323883	724.005676	1144.410400	744.438965	4.860385
297.694519	720.364929	1144.113281	744.290344	5.646138
298.065063	719.993408	1146.565308	744.067383	5.643591
298.435608	721.107910	1139.952271	732.179016	2.643250
298.806122	729.429871	1132.447754	736.117004	1.659265
299.176575	731.584534	1129.252808	735.894104	1.083710
299.547028	728.761047	1123.680054	743.324402	3.687681
299.917450	722.148132	1121.525269	741.764099	4.911640
300.287872	721.702332	1114.317993	733.888000	3.103714
300.658234	725.937561	1115.952515	735.745605	2.514787
301.028564	727.795166	1120.782227	741.541199	3.497833
301.398865	726.977844	1122.714111	741.764099	3.736391
301.769135	722.891113	1129.995728	735.299744	3.048020
302.139374	716.575439	1132.893555	727.126404	2.534352
302.509583	716.129639	1126.354980	734.036560	4.365143
302.879791	713.454773	1118.850464	738.569031	6.194999
303.249939	715.832458	1116.026855	736.785828	5.235798
303.620087	718.804504	1127.172241	731.287415	3.056782
303.990173	720.810730	1130.367310	728.686768	1.923065
304.360260	721.182190	1138.837891	735.225403	3.362390
304.730286	724.600159	1140.472412	742.507141	4.305885
305.100281	722.891174	1142.552856	750.457520	6.568707
305.470276	728.166687	1135.345581	742.729980	3.576633
305.840179	722.668274	1137.203125	739.014832	3.943349
306.210144	719.621887	1140.249634	737.380127	4.221842
306.579987	719.473328	1152.658081	739.683594	4.665507
306.949890	714.049133	1159.345337	735.225403	4.755547
307.319702	718.878845	1177.846680	736.340027	3.804446
307.689484	714.494934	1184.905396	739.460693	5.307229
308.059265	725.789001	1204.298462	745.850769	4.192554
308.429016	727.497986	1212.174683	739.832092	2.544811
308.798737	726.531982	1233.722412	744.810486	3.603874
309.168396	725.863281	1243.456055	742.284180	3.172552
309.538055	714.346375	1256.533325	744.438965	5.550224
309.907684	719.324646	1268.793213	738.717590	3.529400
310.277313	714.569336	1281.796143	743.621643	5.121815
310.646851	723.559875	1294.353394	747.708252	4.230668
311.016388	717.764343	1306.241821	756.847473	6.641398
311.385895	724.525818	1312.483276	756.921814	5.509922
311.755371	723.931396	1314.415039	759.819641	6.077771
312.124817	722.148132	1313.300537	751.200500	4.914531
312.494232	719.993347	1310.254272	748.302734	4.796080
312.863617	721.330811	1307.876343	748.451355	4.623775
313.232971	724.377258	1304.978638	753.801086	5.067819
313.602295	719.473328	1306.910522	748.599915	4.958247
313.971619	717.095520	1316.049805	742.061279	4.168224
314.340820	721.702332	1320.359253	733.070618	1.898965
314.710083	729.058350	1331.430542	735.596985	1.085481
315.079285	730.618652	1344.433472	735.374023	0.774724
315.448486	729.652649	1366.204102	745.181946	2.439598
315.817596	717.838562	1358.328003	746.742371	4.512769
316.186707	719.621765	1352.532349	744.438965	3.921123
316.555786	717.169739	1331.950684	736.339905	3.118211
316.924866	724.080017	1334.551147	738.420410	2.349070
317.293884	713.083191	1332.322144	748.079773	5.651547
317.662872	709.293762	1336.557251	756.624573	7.545603
318.031830	709.739563	1343.393066	754.692688	7.094275
318.400757	724.154297	1354.538574	749.863098	4.078275
318.769684	724.897278	1368.730469	744.364746	3.023682
319.138550	717.244141	1373.188599	744.661865	4.179885
319.507416	713.306152	1378.092407	746.965332	5.063158
319.876190	713.603333	1378.909790	742.507080	4.344426
320.244995	717.541321	1387.157593	749.714417	4.804707
320.613770	719.547546	1381.064819	743.472961	3.616748
320.982483	724.228699	1377.869629	751.869202	4.228698
321.351166	727.572266	1367.690063	743.250061	2.449205
321.719818	725.120178	1363.826294	747.856934	3.559815
322.088440	727.646545	1368.730347	736.637207	1.402416
322.457062	730.395752	1385.225586	734.185242	0.578698
322.825623	721.925232	1408.705200	727.126465	0.757336
323.194183	717.021179	1418.884766	736.785706	2.816007
323.562653	710.408264	1439.912476	746.668030	4.970467
323.931183	719.621826	1457.596558	752.537903	4.460326
324.299591	719.398926	1492.741821	744.364685	3.228291
324.668060	724.228699	1513.100586	731.807434	0.960705
325.036407	724.302917	1536.654663	732.550476	1.015269
325.404755	725.937683	1552.555298	737.528809	1.402236
