Jaz Data File
++++++++++++++++++++++++++++++++++++
Date: Fri Jun 04 17:07:09 2021
User: jaz
Dark Spectrum Present: Yes
Reference Spectrum Present: Yes
Processed Spectrum Present: Yes
Spectrometers: JAZA3586
Integration Time (usec): 120000 (JAZA3586)
Spectra Averaged: 10 (JAZA3586)
Boxcar Smoothing: 1 (JAZA3586)
Correct for Electrical Dark: No (JAZA3586)
Strobe/Lamp Enabled: Yes (JAZA3586)
Correct for Detector Non-linearity: No (JAZA3586)
Correct for Stray Light: No (JAZA3586)
Number of Pixels in Processed Spectrum: 2048
>>>>>Begin Processed Spectral Data<<<<<
W	D	R	S	P
191.335022	0.000000	0.000000	0.000000	0.000000
191.713211	229.818314	229.892624	221.347794	-11398.850586
192.091385	460.082428	468.552979	452.800781	-85.964264
192.469528	686.408508	696.142273	684.105164	-23.663452
192.847641	692.724304	707.659180	699.411438	44.775291
193.225739	702.606506	714.197754	707.213196	39.742828
193.603790	719.547546	727.423584	719.993347	5.660216
193.981842	727.869446	730.915833	730.098572	73.172783
194.359863	736.340027	734.408020	736.637207	-15.381942
194.737854	738.791992	737.900208	739.312073	-58.319077
195.115829	739.163513	739.312012	739.757813	400.205505
195.493774	740.203796	734.631042	741.169617	-17.331114
195.871704	741.615479	730.247131	744.884766	-28.757805
196.249603	741.912659	727.200745	747.411133	-37.374294
196.627457	738.346191	728.166687	750.606140	-120.437576
197.005310	736.934387	731.658875	743.621765	-126.762619
197.383133	741.169678	738.346130	736.191406	176.312668
197.760910	750.383118	746.445129	734.928223	392.456604
198.138687	758.556458	749.268738	741.318176	185.602951
198.516449	765.095154	740.203674	744.884766	81.194000
198.894180	755.064270	727.052185	741.987000	46.684387
199.271866	748.451355	730.544373	739.089172	52.282303
199.649536	735.819824	735.076843	739.683594	-520.036133
200.027191	733.144958	743.324524	744.736145	113.867203
200.404816	728.909668	743.547363	744.513245	106.598587
200.782410	730.544373	754.989929	743.250183	51.975952
201.159988	727.200684	768.513000	742.952942	38.129688
201.537537	725.566101	774.308594	744.364685	38.567139
201.915070	721.702332	775.051758	744.290344	42.339748
202.292557	726.606262	771.930969	744.438965	39.344330
202.670029	730.470032	773.194153	746.296570	37.043568
203.047485	734.259460	771.633789	751.349121	45.725666
203.424911	728.389587	768.215820	742.284180	34.888042
203.802292	722.296692	763.163269	736.860107	35.636494
204.179688	716.872742	763.014648	732.179016	33.172176
204.557037	725.640381	759.819641	733.590820	23.261005
204.934357	727.052063	759.522461	735.374023	25.629375
205.311661	731.658875	760.934143	737.008728	18.274311
205.688934	723.188416	759.225159	741.541199	50.927975
206.066177	728.389648	764.054871	735.671204	20.416403
206.443390	721.851013	758.184998	730.172852	22.903732
206.820587	725.045959	758.259277	727.275085	6.711543
207.197769	728.761169	754.915710	735.819824	26.988256
207.574921	732.773438	757.962097	732.773438	0.000000
207.952042	733.219299	761.454285	730.692932	-8.947648
208.329147	719.101746	760.488342	727.646667	20.646593
208.706223	758.482178	803.212402	777.355164	42.192917
209.083267	762.717468	802.915222	773.937195	27.911327
209.460297	767.547119	795.782166	768.735901	4.210306
209.837280	729.132629	745.702148	725.863281	-19.731098
210.214264	718.061523	745.553528	728.612488	38.378300
210.591217	714.792236	749.045715	732.253357	50.976196
210.968124	715.981018	758.630798	733.293518	40.592236
211.345016	722.519714	766.432556	738.271790	35.871227
211.721893	724.971680	778.469666	744.513245	36.527664
212.098724	721.627991	778.469543	737.677429	28.235397
212.475555	712.860168	778.692566	734.408020	32.731380
212.852356	708.922180	769.850403	729.727051	34.146526
213.229126	712.117188	770.965027	731.510254	32.954594
213.605865	719.621826	762.048645	722.891174	7.705853
213.982590	725.120300	768.364441	718.655945	-14.948512
214.359283	720.513489	757.590515	718.507324	-5.410802
214.735931	718.284424	757.218994	729.429871	28.626095
215.112579	707.733459	751.274841	725.937561	41.808735
215.489197	701.343445	748.302734	728.463867	57.753052
215.865799	704.241211	744.216003	727.423645	57.992630
216.242355	718.284424	742.804260	729.132629	44.242569
216.618896	730.767273	749.417297	727.943848	-15.138989
216.995407	727.423645	758.184998	720.439270	-22.705032
217.371902	721.702332	761.602844	721.479492	-0.558487
217.748367	724.005676	764.352051	721.850891	-5.340716
218.124802	723.039734	757.887695	719.844788	-9.168244
218.501236	722.593933	754.841309	713.603333	-27.880100
218.877609	714.197754	751.274841	714.197754	0.000000
219.253983	724.154297	754.767029	719.101746	-16.504738
219.630295	728.835449	757.590576	731.956055	10.852345
220.006592	728.761047	758.927979	736.191345	24.630606
220.382889	718.284363	751.126221	731.064453	38.914028
220.759140	717.169922	746.370850	724.823059	26.208542
221.135391	713.306152	746.965271	717.169922	11.479116
221.511581	715.906738	745.181946	718.284424	8.121840
221.887772	711.225586	747.931152	721.256531	27.328131
222.263931	717.764343	757.739197	724.080017	15.799117
222.640060	717.541321	772.599670	729.504150	21.727549
223.016159	724.748718	769.553223	728.092346	7.462705
223.392212	717.764343	758.556458	727.869446	24.772196
223.768265	719.324646	756.253113	728.538147	24.949591
224.144302	708.699402	757.293396	727.275085	38.226295
224.520294	707.807800	757.293396	723.039856	30.780787
224.896286	717.021301	761.528564	715.683838	-3.005045
225.272217	722.965515	765.912415	709.368103	-31.660986
225.648148	734.853943	771.336609	712.785950	-60.488983
226.024048	723.634094	767.695801	714.049072	-21.753633
226.399902	719.176025	770.370605	716.798340	-4.644409
226.775772	702.235046	760.414063	706.321594	7.024092
227.151581	703.646790	756.401672	708.550781	9.295806
227.527374	703.721130	751.274841	706.841797	6.562404
227.903137	715.089355	760.636902	717.244202	4.730982
228.278870	718.433044	765.020813	719.176025	1.594798
228.654572	714.717957	763.609070	724.080078	19.148922
229.030273	711.002747	763.609070	725.120300	26.836229
229.405930	707.436279	760.636963	725.194641	33.379951
229.781555	708.402161	757.070374	729.652832	43.664375
230.157181	714.866516	755.807312	732.401917	42.831116
230.532761	711.597168	753.280945	730.172852	44.563339
230.908325	716.203918	762.568848	725.120300	19.230875
231.283859	715.089417	760.339783	731.361755	35.960678
231.659332	719.547546	759.671082	736.117004	41.296108
232.034821	715.535217	758.407898	733.144958	41.074505
232.410263	709.516663	755.732971	728.240906	40.514362
232.785690	702.978027	755.287109	726.457703	44.886421
233.161087	706.098816	748.377014	731.213074	59.402386
233.536469	708.773682	755.212891	726.309082	37.759903
233.911804	713.900574	747.411072	724.525818	31.707211
234.287140	713.751953	754.098328	724.451477	26.519171
234.662430	707.584778	751.943542	727.646545	45.226162
235.037704	703.795410	758.928040	734.482422	55.660343
235.412933	706.321594	760.339783	730.841553	45.392040
235.788162	715.906738	763.683411	722.593933	13.996778
236.163345	724.748779	773.416992	719.547546	-10.687125
236.538513	728.018066	774.977356	728.909668	1.898669
236.913635	730.693054	774.531555	735.596985	11.186356
237.288742	733.739441	767.844238	737.825989	11.982326
237.663834	732.104736	759.373779	735.299744	11.716610
238.038879	729.949951	753.058105	731.510315	6.752438
238.413910	719.176025	747.039551	728.240967	32.533360
238.788910	711.522888	746.593750	725.640381	40.254192
239.163879	712.191589	752.017822	723.857117	29.291063
239.538834	713.603333	758.259277	721.182190	16.971664
239.913757	722.445374	761.157043	720.959290	-3.838853
240.288651	721.330872	759.150940	720.216309	-2.947015
240.663528	720.290527	765.243713	722.296692	4.462786
241.038361	713.900574	773.491394	722.519592	14.463668
241.413177	710.111084	772.005310	724.451477	23.169193
241.787979	708.402161	763.980652	718.804504	18.716492
242.162735	710.556946	760.339661	716.129639	11.194032
242.537476	710.854187	761.602844	713.157532	4.538731
242.912170	719.993408	775.125977	724.897278	8.894688
243.286865	717.838623	773.342712	726.011902	14.725543
243.661514	715.980957	770.965027	730.544373	26.486609
244.036148	715.609558	767.472717	722.371094	13.037261
244.410751	718.878723	774.457275	721.702332	5.080392
244.785339	723.931396	775.125977	722.891113	-2.032018
245.159882	714.346375	765.838135	729.429749	29.292791
245.534378	718.581604	760.488342	733.590759	35.815613
245.908890	720.290527	768.661621	729.058289	18.126034
246.283356	720.290527	769.627625	732.699158	25.150711
246.657791	720.587830	765.243713	729.578430	20.133070
247.032196	718.061523	765.540955	738.271790	42.566360
247.406586	721.776672	764.797913	724.005676	5.181171
247.780960	714.494934	769.627625	723.336975	16.037746
248.155289	714.494934	767.175598	718.581604	7.757438
248.529602	715.312317	774.011414	721.182312	10.000146
248.903870	719.770508	769.330383	718.284424	-2.998563
249.278122	715.832336	759.671082	719.919128	9.322329
249.652344	715.535156	757.961975	724.897278	22.066519
250.026550	711.820068	763.906250	729.801331	34.522137
250.400711	717.764343	776.091980	726.754944	15.413963
250.774857	720.290588	769.999084	722.445313	4.334720
251.148987	727.795227	771.113586	717.318420	-24.185604
251.523071	722.222473	764.426331	715.237976	-16.549429
251.897125	719.770447	771.039307	721.628113	3.623381
252.271164	710.705566	766.952637	723.411316	22.589176
252.645187	706.916077	769.330383	723.634277	26.785847
253.019165	703.126709	767.101318	717.987122	23.228611
253.393112	711.374268	776.091980	723.857117	19.288149
253.767044	715.980957	775.051758	732.773438	28.427717
254.140930	722.148132	772.376770	745.702148	46.893600
254.514801	718.878845	764.129211	748.897156	66.338272
254.888657	723.559875	768.958801	746.519470	50.572990
255.262466	722.296814	776.909241	737.157288	27.210793
255.636276	726.606384	776.537781	734.556641	15.922359
256.010010	723.782898	778.469543	726.754883	5.434572
256.383759	728.686768	769.627502	723.114075	-13.611609
256.757446	720.216248	770.965027	719.473206	-1.464157
257.131134	718.432922	764.872070	723.708496	11.360187
257.504791	709.591003	772.674011	722.148193	19.905821
257.878418	713.603271	777.503662	719.250427	8.837436
258.252014	725.714661	783.819397	714.420654	-19.437325
258.625580	725.491760	782.853516	717.912903	-13.212387
258.999115	723.485596	779.658508	721.107910	-4.232797
259.372650	713.677673	777.206482	722.668274	14.152005
259.746124	715.238037	782.927734	724.748718	14.050412
260.119598	717.095520	791.695496	720.216248	4.183282
260.493042	725.640320	802.766602	723.634094	-2.601222
260.866425	730.098450	797.342468	731.436035	1.989152
261.239838	732.476257	796.525146	735.596985	4.872415
261.613159	721.256531	789.986572	735.225403	20.324259
261.986511	722.742493	800.240295	720.736389	-2.588594
262.359802	714.792175	795.930847	718.433044	4.487218
262.733063	716.575439	788.351868	724.600098	11.180075
263.106293	708.625061	780.995911	731.807434	32.032749
263.479523	711.671387	783.968018	738.197510	36.690678
263.852692	704.984192	789.020569	733.590759	34.040695
264.225861	710.333984	791.918396	727.720886	21.311548
264.598969	716.129639	793.181458	721.999512	7.618085
264.972076	722.296875	792.215637	725.194519	4.144301
265.345154	729.132629	795.262024	736.265625	10.786422
265.718201	726.829285	792.958679	736.637146	14.831319
266.091217	731.584534	803.286682	735.968445	6.114058
266.464203	731.435974	801.875000	730.544250	-1.265951
266.837158	730.395691	803.286804	729.949890	-0.611598
267.210114	724.079895	792.958679	723.411316	-0.970660
267.583038	712.934570	788.054626	725.120300	16.221674
267.955902	711.151367	792.066956	718.135803	8.631756
268.328766	718.135742	808.859375	730.247131	13.349762
268.701569	716.129578	813.243225	728.909729	13.159995
269.074371	711.522888	814.729309	734.110840	21.886189
269.447144	708.402161	802.543701	724.971619	17.600580
269.819885	715.460938	807.596375	722.148132	7.258005
270.192596	723.337097	802.915222	731.658875	10.457368
270.565277	723.262695	816.809814	737.305908	15.011914
270.937927	719.398926	818.147278	736.711426	17.531939
271.310577	717.615723	820.004883	728.240967	10.377314
271.683136	719.398926	820.970886	722.593933	3.145560
272.055725	724.154297	819.261902	721.925232	-2.343729
272.428284	729.206848	829.812805	718.135742	-11.004424
272.800812	725.714661	824.463074	715.386536	-10.459029
273.173279	721.330811	831.670410	708.922363	-11.245688
273.545776	712.860291	826.989258	719.398987	5.729217
273.918152	711.448547	827.509460	727.423645	13.764408
274.290558	712.562988	822.308167	736.265625	21.597885
274.662964	713.231750	828.846863	725.863220	10.925448
275.035278	716.055359	826.394836	716.723938	0.605929
275.407593	712.488770	829.738464	718.878845	5.449972
275.779907	714.569275	833.082092	731.733154	14.482720
276.152161	708.847961	840.958191	736.785828	21.147390
276.524384	716.872620	842.147034	732.699158	12.633496
276.896606	717.244141	838.283386	724.823059	6.261538
277.268799	722.593994	847.273926	721.925293	-0.536334
277.640930	717.615723	853.366699	719.919128	1.696788
278.013031	727.720886	857.750671	723.262695	-3.428592
278.385162	729.949951	852.177917	731.510254	1.276551
278.757233	731.881836	851.211914	735.745605	3.237884
279.129272	721.405090	852.475098	730.618652	7.029497
279.501282	723.857117	851.583496	723.782776	-0.058203
279.873230	727.052063	845.713562	721.925232	-4.320551
280.245178	732.550537	854.184082	725.268799	-5.986620
280.617126	722.371094	863.546204	727.274963	3.473608
280.988983	714.866455	879.967102	727.646484	7.740751
281.360870	713.826233	889.254883	734.333801	11.689977
281.732697	711.077087	898.096924	731.287354	10.806482
282.104492	722.965515	902.852295	734.110840	6.195744
282.476288	723.782715	899.731628	726.234802	1.393636
282.848053	736.488586	900.325989	729.801270	-4.081679
283.219757	731.213074	909.985413	726.383362	-2.701599
283.591461	733.070618	924.251465	732.550537	-0.272036
283.963135	728.835388	929.601257	737.974609	4.552179
284.334747	730.767273	930.418640	738.271790	3.758811
284.706360	724.600098	924.623047	734.631042	5.014897
285.077942	727.943665	929.007019	727.646545	-0.147774
285.449524	722.519714	935.842773	730.841553	3.901050
285.821014	722.371094	932.573425	730.024231	3.640843
286.192535	716.649719	941.638367	730.990173	6.373857
286.563995	718.210144	938.814880	730.544373	5.591099
286.935425	723.188293	948.251282	733.367859	4.522985
287.306824	726.383484	938.443359	733.665039	3.433726
287.678223	722.222473	938.963440	728.612488	2.948226
288.049561	720.885010	944.610535	722.073914	0.531412
288.420898	717.615662	948.399902	715.163757	-1.062423
288.792145	722.891113	953.675476	714.866455	-3.477124
289.163452	722.965515	951.372070	719.027527	-1.724113
289.534668	725.491760	963.632019	724.302917	-0.499220
289.905914	719.324707	972.845520	723.782776	1.758463
290.277039	727.943787	987.928955	718.284424	-3.715352
290.648193	739.089172	995.210632	725.491699	-5.308994
291.019318	737.677429	1002.195068	732.104675	-2.106761
291.390381	725.194580	1004.424133	735.002441	3.512473
291.761475	713.157532	1006.430359	735.076843	7.474034
292.132507	716.278259	1011.631531	729.058289	4.327032
292.503510	713.900574	1015.198059	734.556641	6.855705
292.874481	718.284363	1024.337280	741.689758	7.647500
293.245422	723.188416	1017.872986	745.850769	7.690377
293.616364	727.720886	1024.634644	746.222229	6.231218
293.987213	723.708496	1019.953430	730.544373	2.307508
294.358093	723.114075	1037.043091	732.476257	2.982261
294.728943	720.810730	1046.182251	725.268860	1.370166
295.099731	717.095520	1072.188354	724.005676	1.946014
295.470490	709.219482	1087.717529	730.692871	5.673316
295.841248	709.442383	1092.250122	730.247131	5.434777
296.211975	710.482605	1101.314941	734.036560	6.026614
296.582642	720.959290	1111.420044	722.519714	0.399637
296.953308	722.148132	1133.710938	724.600098	0.595769
297.323883	723.188416	1133.413696	721.850891	-0.326046
297.694519	718.358704	1148.274170	723.634216	1.227105
298.065063	714.494934	1153.698242	725.937561	2.605314
298.435608	717.764343	1157.710693	726.829285	2.060465
298.806122	718.061523	1144.782104	724.600098	1.532285
299.176575	726.309082	1126.503540	730.098572	0.946912
299.547028	723.262695	1113.277710	733.665039	2.667165
299.917450	715.089355	1100.274780	731.881836	4.359583
300.287872	709.219543	1100.274780	730.172852	5.358145
300.658234	713.454773	1107.704956	726.234863	3.241619
301.028564	720.439209	1107.184814	736.785828	4.226711
301.398865	724.228577	1106.887573	732.476257	2.155360
301.769135	722.222473	1100.720459	738.123230	4.201015
302.139374	726.606384	1109.042358	731.138855	1.185158
302.509583	724.154358	1119.370483	730.024231	1.485231
302.879791	721.702332	1125.166138	730.395752	2.154696
303.249939	713.974854	1123.680054	730.470032	4.026109
303.620087	711.448547	1116.769897	728.315247	4.161315
303.990173	717.912903	1117.364258	721.776611	0.967254
304.360260	724.005676	1121.079468	723.485596	-0.130978
304.730286	726.011902	1127.618164	728.909668	0.721544
305.100281	714.717834	1132.522095	730.915833	3.876935
305.470276	710.705566	1134.379517	726.754883	3.788129
305.840179	710.705566	1140.398071	723.782776	3.043388
306.210144	713.677551	1148.125610	722.445313	2.018138
306.579987	717.838562	1160.014038	734.482422	3.764085
306.949890	713.157532	1164.472168	732.327637	4.247614
307.319702	718.358704	1171.308105	742.061340	5.232955
307.689484	717.169861	1182.899292	732.476257	3.286543
308.059265	725.045959	1204.447144	731.064453	1.255419
308.429016	722.593933	1220.348022	719.324707	-0.656795
308.798737	721.776672	1239.592285	720.810730	-0.186542
309.168396	720.364929	1248.434204	722.296814	0.365839
309.538055	718.358704	1267.158569	724.005676	1.028968
309.907684	719.844727	1272.359741	718.953125	-0.161371
310.277313	714.494934	1280.904419	715.758118	0.223016
310.646851	719.621887	1293.164551	724.377197	0.829112
311.016388	713.974854	1309.808350	731.733154	2.980413
311.385895	717.838562	1319.839233	747.411072	4.912372
311.755371	714.717834	1317.015747	743.027161	4.700220
312.124817	720.067627	1321.473877	737.825989	2.952806
312.494232	720.885010	1326.823730	728.909668	1.324335
312.863617	719.250305	1321.251099	724.748718	0.913356
313.232971	724.600098	1317.461670	730.544373	1.002641
313.602295	726.234802	1308.099487	724.971680	-0.217082
313.971619	724.154297	1312.483276	726.754883	0.442029
314.340820	721.627991	1308.025024	721.702332	0.012678
314.710083	721.850891	1326.154907	725.789001	0.651677
315.079285	722.222412	1347.479858	721.702332	-0.083179
315.448486	725.566101	1369.696289	727.795105	0.346049
315.817596	716.649719	1372.817017	725.640381	1.370178
316.186707	720.439148	1360.408569	730.915833	1.637060
316.555786	706.841797	1348.445801	727.200745	3.173133
316.924866	712.042969	1333.139526	722.742615	1.722703
317.293884	709.962463	1328.978516	724.971619	2.424680
317.662872	716.575439	1323.182983	727.274963	1.763830
318.031830	714.569336	1328.532593	738.569031	3.908979
318.400757	719.101746	1335.071411	739.163391	3.256921
318.769684	719.027344	1350.303345	737.974609	3.001423
319.138550	720.513428	1358.996704	731.287354	1.687425
319.507416	716.426819	1368.878906	727.126404	1.639904
319.876190	710.259705	1362.191650	723.634216	2.051520
320.244995	711.597168	1369.399048	731.733154	3.061102
320.613770	716.946960	1364.643677	729.652771	1.961691
320.982483	727.349304	1370.959473	737.083008	1.512360
321.351166	723.782776	1366.798462	728.538269	0.739561
321.719818	719.473328	1366.872681	731.287415	1.824853
322.088440	714.123474	1370.513672	727.646545	2.060218
322.457062	716.426819	1381.287598	730.544373	2.123385
322.825623	717.244141	1389.237915	735.374084	2.697933
323.194183	714.643555	1404.692993	725.417480	1.561327
323.562653	708.922302	1416.358398	730.767273	3.087907
323.931183	708.773682	1445.559448	716.575439	1.058891
324.299591	714.569336	1478.178223	722.891174	1.089804
324.668060	718.581726	1511.020142	719.027527	0.056257
325.036407	712.414490	1551.589355	732.104736	2.346382
325.404755	708.625000	1563.255005	732.253357	2.764747
