Jaz Data File
++++++++++++++++++++++++++++++++++++
Date: Fri Jun 04 17:04:26 2021
User: jaz
Dark Spectrum Present: Yes
Reference Spectrum Present: Yes
Processed Spectrum Present: Yes
Spectrometers: JAZA3586
Integration Time (usec): 122000 (JAZA3586)
Spectra Averaged: 10 (JAZA3586)
Boxcar Smoothing: 1 (JAZA3586)
Correct for Electrical Dark: No (JAZA3586)
Strobe/Lamp Enabled: Yes (JAZA3586)
Correct for Detector Non-linearity: No (JAZA3586)
Correct for Stray Light: No (JAZA3586)
Number of Pixels in Processed Spectrum: 2048
>>>>>Begin Processed Spectral Data<<<<<
W	D	R	S	P
191.335022	0.000000	0.000000	0.000000	0.000000
191.713211	230.487015	226.177490	230.932846	-10.345255
192.091385	464.540619	461.122711	463.871857	19.566422
192.469528	699.262878	689.975098	692.575684	71.999924
192.847641	705.429993	700.228821	694.953369	201.428131
193.225739	712.637390	707.064697	702.606628	179.998474
193.603790	720.067688	719.101746	719.993347	7.696196
193.981842	730.247070	730.024231	733.962219	-1667.187012
194.359863	731.956055	737.157288	744.959045	249.998245
194.737854	743.324402	750.606140	748.822815	75.509621
195.115829	747.708252	749.045715	746.890930	-61.109844
195.493774	751.200500	747.485352	745.033386	165.999115
195.871704	747.262451	748.451355	743.547302	-312.485229
196.249603	749.342957	748.897156	747.113770	500.041077
196.627457	749.342957	748.599915	743.547363	779.981934
197.005310	751.051941	736.711487	741.466797	66.839890
197.383133	746.073547	736.488586	746.222229	-1.551197
197.760910	752.835144	744.438965	753.801086	-11.504547
198.138687	747.039551	751.572083	761.900085	327.863892
198.516449	743.695862	751.274902	751.349121	100.979263
198.894180	736.042725	739.906555	746.222168	263.454712
199.271866	747.039551	737.677429	737.603088	100.794060
199.649536	740.575256	732.327637	745.479187	-59.458740
200.027191	736.488586	738.049011	748.079834	742.826416
200.404816	724.154297	736.191406	753.280945	241.973770
200.782410	728.018066	753.726807	749.788757	84.682060
201.159988	731.807434	764.575012	742.061340	31.292841
201.537537	730.395752	777.132141	743.844543	28.775846
201.915070	730.172852	772.450989	743.472961	31.458599
202.292557	730.395752	769.999084	746.668030	41.088154
202.670029	734.036560	770.593506	741.466858	20.325270
203.047485	739.089111	774.828796	741.912659	7.900314
203.424911	743.027161	773.862854	745.330566	7.469934
203.802292	745.850769	771.782410	749.342957	13.466898
204.179688	744.067383	772.079590	740.723816	-11.936107
204.557037	738.643372	773.268372	729.801331	-25.536581
204.934357	734.631042	775.125977	723.262695	-28.073505
205.311661	729.727051	779.138367	725.789063	-7.969810
205.688934	724.377197	775.200256	737.231628	25.292517
206.066177	722.965515	764.872253	735.002502	28.723274
206.443390	727.126465	762.494446	743.993164	47.689178
206.820587	730.098572	770.519226	738.346130	20.404318
207.197769	727.052063	775.868958	739.980774	26.484091
207.574921	730.990173	770.965027	735.894226	12.267844
207.952042	729.058289	761.602844	738.569031	29.223759
208.329147	729.355469	759.893860	741.912598	41.119156
208.706223	763.980530	802.617920	787.757385	61.538460
209.083267	763.089050	805.664368	796.748047	79.057533
209.460297	765.466614	806.630371	796.376526	75.090111
209.837280	723.337097	754.172607	748.748535	82.409653
210.214264	721.330872	751.497742	730.767273	31.280678
210.591217	715.163757	755.955872	731.435974	39.890594
210.968124	718.730225	770.147705	732.847656	27.456482
211.345016	724.525879	775.571777	739.757996	29.840040
211.721893	733.442200	771.039368	736.488586	8.102703
212.098724	733.070618	762.717468	743.695984	35.839779
212.475555	735.968506	771.633789	747.188171	31.458227
212.852356	737.528809	771.485168	754.023926	48.577400
213.229126	738.048889	778.023743	749.119934	27.695023
213.605865	733.219238	765.169434	741.020996	24.418497
213.982590	727.720886	772.228210	745.404968	39.732971
214.359283	718.655945	767.918640	743.398743	50.226238
214.735931	723.262695	760.711243	743.472961	53.968090
215.112579	714.569275	755.064209	727.720886	32.477177
215.489197	721.033630	757.590576	727.275085	17.073240
215.865799	718.433044	761.974426	730.470032	27.644936
216.242355	727.200684	759.299500	736.117004	27.777725
216.618896	730.395752	755.732910	736.711426	24.926529
216.995407	730.470032	754.469788	743.250183	53.251171
217.371902	726.754883	761.677185	743.250183	47.234287
217.748367	720.513489	772.451111	742.135559	41.630844
218.124802	722.965515	772.896973	737.380188	28.868921
218.501236	726.606262	765.466614	737.826111	28.872227
218.877609	729.949890	752.612244	736.711487	29.836250
219.253983	726.680664	755.955872	727.349426	2.284398
219.630295	723.559875	760.042480	723.857117	0.814748
220.006592	720.959290	762.420227	728.389648	17.921349
220.382889	715.163635	757.739075	731.064453	37.347397
220.759140	715.758118	752.612305	735.522644	53.628986
221.135391	714.717957	753.652527	730.321472	40.076248
221.511581	715.089355	752.537903	734.928223	52.976334
221.887772	711.968750	755.807312	735.968445	54.745625
222.263931	716.278259	766.209656	741.169678	49.851234
222.640060	724.971680	773.565674	742.952881	37.002930
223.016159	730.990173	765.318054	736.414307	15.800956
223.392212	729.875671	756.921875	737.825989	29.395317
223.768265	723.559875	757.070496	741.541199	53.658581
224.144302	719.398926	765.763855	743.472961	51.922943
224.520294	717.169922	762.494568	731.584656	31.803301
224.896286	717.392761	766.878418	724.525879	14.414515
225.272217	722.668274	773.862793	724.525818	3.628404
225.648148	728.612488	779.658386	735.299744	13.100476
226.024048	729.801270	773.714172	734.036621	9.644891
226.399902	721.107910	764.500732	725.789001	10.787709
226.775772	712.265808	763.014648	718.953125	13.177280
227.151581	713.231750	759.819641	723.708496	22.488131
227.527374	710.333984	762.122986	736.265625	50.071712
227.903137	711.968689	767.175598	741.689758	53.835777
228.278870	711.151367	777.057861	744.884766	51.183723
228.654572	716.278259	776.834961	741.615479	41.840488
229.030273	716.724121	774.680176	737.157288	35.256310
229.405930	715.386536	767.398621	735.299744	38.285732
229.781555	717.095520	760.116882	735.225403	42.141582
230.157181	722.965515	755.732971	740.055176	52.154369
230.532761	722.668274	750.977539	740.500977	62.992462
230.908325	723.634094	763.460449	743.621765	50.187046
231.283859	719.398926	764.946533	746.890930	60.358833
231.659332	721.479431	769.479004	742.804382	44.427376
232.034821	719.176086	759.150940	739.014893	49.628216
232.410263	722.593933	756.030273	722.816895	0.666824
232.785690	722.668213	757.739075	719.101746	-10.169317
233.161087	717.838623	762.123047	715.758118	-4.698052
233.536469	713.231750	762.791748	723.931458	21.589401
233.911804	711.968567	762.717468	728.686829	32.943100
234.287140	725.045898	759.448059	723.634216	-4.103469
234.662430	727.497864	758.630798	732.699158	16.706726
235.037704	727.126465	763.683350	730.544373	9.349560
235.412933	720.067627	763.014648	735.968445	37.024261
235.788162	717.615723	766.655457	723.485596	11.969626
236.163345	719.324646	762.123047	721.405090	4.861033
236.538513	721.925293	765.466614	726.977844	11.604037
236.913635	725.714661	763.683350	732.476257	17.808350
237.288742	723.931458	769.999023	735.076843	24.193563
237.663834	720.959290	775.348877	734.259521	24.453636
238.038879	712.711731	774.977356	732.402039	31.623079
238.413910	716.426819	764.723633	733.590820	35.538578
238.788910	718.135803	758.928040	733.293518	37.158333
239.163879	724.897400	759.076599	730.024231	14.999857
239.538834	718.061523	760.488342	728.686768	25.043697
239.913757	723.114075	772.525391	734.185242	22.406137
240.288651	726.531982	778.989746	735.819824	17.705372
240.663528	732.104736	784.265198	734.631042	4.843336
241.038361	726.383484	771.410828	729.281189	6.435434
241.413177	718.804504	769.701843	734.259521	30.365078
241.787979	721.850891	766.729736	735.448303	30.298044
242.162735	719.919006	772.748291	730.990173	20.956495
242.537476	718.804504	764.946472	725.343079	14.170558
242.912170	713.454773	771.113586	735.151123	37.628853
243.286865	715.237976	769.850403	744.067444	52.789207
243.661514	714.272034	777.577942	738.791992	38.732494
244.036148	720.141907	782.556213	730.321472	16.309668
244.410751	716.649719	785.231140	725.194580	12.459440
244.785339	720.810730	785.825684	737.751770	26.057144
245.159882	716.724060	775.794739	735.745605	32.201332
245.534378	717.615662	774.085754	732.401855	26.184114
245.908890	714.569275	765.838196	729.429749	28.985346
246.283356	713.380432	770.667908	733.665039	35.408451
246.657791	716.946960	766.432617	735.002502	36.486416
247.032196	718.878906	782.927795	741.689697	35.614655
247.406586	715.906738	777.057800	739.757813	39.003532
247.780960	718.061523	784.785339	743.027161	37.416382
248.155289	716.352539	772.228210	739.460632	41.356270
248.529602	715.163635	773.937195	739.089172	40.707993
248.903870	714.569275	770.073425	733.739319	34.538036
249.278122	713.603333	769.627625	734.705322	37.665787
249.652344	715.683838	769.330383	731.064453	28.670280
250.026550	721.033630	773.268494	733.070618	23.043972
250.400711	731.138855	779.064026	729.058289	-4.341281
250.774857	733.070618	785.379700	733.145020	0.142235
251.148987	718.432922	782.779114	738.494690	31.177864
251.523071	713.751953	781.441650	736.265625	33.260117
251.897125	718.358704	778.989746	741.987000	38.970623
252.271164	725.120300	772.451111	731.436035	13.343813
252.645187	720.439148	767.621399	725.417480	10.551282
253.019165	709.368103	763.088928	713.974854	8.575354
253.393112	710.111084	777.132141	725.937561	23.614185
253.767044	714.494934	787.608887	727.275085	17.479771
254.140930	716.129578	795.039124	735.522644	24.576324
254.514801	715.089355	792.512756	732.401917	22.360889
254.888657	715.683777	782.927795	734.556702	28.066324
255.262466	727.869446	778.321045	732.253357	8.689341
255.636276	731.956116	777.726563	732.327637	0.811705
256.010010	735.299744	776.834961	733.367859	-4.651197
256.383759	732.401855	776.834961	736.414246	9.030182
256.757446	729.132568	776.612000	729.132568	0.000000
257.131134	722.891113	785.454041	735.076843	19.477558
257.504791	720.810730	780.104248	735.894226	25.438694
257.878418	715.609558	773.416992	743.250183	47.815002
258.252014	720.884949	769.999084	742.284180	43.570412
258.625580	722.668274	783.893738	739.089111	26.820274
258.999115	729.132629	794.296082	733.144958	6.157331
259.372650	721.850891	804.401306	728.166687	7.650835
259.746124	716.278259	798.308411	729.949890	16.666592
260.119598	715.460938	806.927551	735.299744	21.689669
260.493042	721.925232	803.955383	735.596924	16.666666
260.866425	725.640320	810.865540	732.030457	7.497941
261.239838	724.005676	805.590088	729.727051	7.012828
261.613159	722.519714	808.562195	728.315247	6.735664
261.986511	722.742615	802.469421	735.894226	16.495846
262.359802	721.999512	790.878113	739.386414	25.242821
262.733063	721.405090	777.206482	743.101501	38.881489
263.106293	714.494934	778.246643	727.423584	20.279692
263.479523	716.649719	788.723328	738.048828	29.690630
263.852692	715.237976	794.296082	742.358459	34.304493
264.225861	715.163635	787.311584	753.429626	53.038223
264.598969	716.278137	779.955627	748.971436	51.342003
264.972076	709.293762	782.556213	754.098328	61.156246
265.345154	710.408386	798.085510	749.120117	44.152603
265.718201	712.563049	803.063782	744.141785	34.893349
266.091217	728.018066	812.500244	744.364563	19.349047
266.464203	736.711487	818.815979	754.172546	21.266874
266.837158	738.940613	817.404297	749.194275	13.068035
267.210114	728.835388	811.905823	742.729980	16.726278
267.583038	727.275085	802.246521	742.135559	19.821514
267.955902	718.433044	812.946045	737.305969	19.968601
268.328766	718.581604	820.153503	740.649597	21.726475
268.701569	711.002747	818.593079	734.408142	21.754181
269.074371	717.095520	810.642761	743.473083	28.197052
269.447144	718.804504	811.237061	735.448425	18.006557
269.819885	719.844727	814.580750	732.550476	13.411740
270.192596	719.027405	823.719910	729.206848	9.723183
270.565277	719.547546	835.831238	733.516418	12.012753
270.937927	722.816833	840.512390	736.488586	11.616201
271.310577	718.507324	838.803467	739.237793	17.232862
271.683136	713.900574	832.339111	743.844543	25.282286
272.055725	712.934570	836.648682	738.791992	20.900948
272.428284	712.414551	837.317383	734.110840	17.370535
272.800812	721.628113	837.317383	728.092346	5.587583
273.173279	725.268860	842.369934	734.259460	7.677641
273.545776	732.773438	850.394714	736.117004	2.842655
273.918152	732.476257	854.109802	745.479187	10.690249
274.290558	729.652649	848.834290	738.569031	7.481339
274.662964	729.206848	849.502991	744.364746	12.600486
275.035278	716.872620	849.354431	730.024231	9.927107
275.407593	718.804504	855.224365	743.473083	18.082836
275.779907	714.272034	855.298645	740.500977	18.598577
276.152161	721.330750	860.202637	741.318176	14.392709
276.524384	721.256531	861.242859	732.550476	8.067892
276.896606	718.284363	859.905334	731.064453	9.024151
277.268799	717.467102	863.546204	731.213074	9.409951
277.640930	711.225647	860.351135	728.909668	11.858483
278.013031	717.690125	862.134460	730.172852	8.641894
278.385162	719.919128	863.471985	732.253235	8.592031
278.757233	721.851013	868.747375	735.299744	9.155251
279.129272	720.364929	873.502747	730.841553	6.841304
279.501282	718.135742	867.038513	735.968506	11.976112
279.873230	719.696106	866.295593	735.448425	10.745139
280.245178	719.770508	872.091064	741.763977	14.438937
280.617126	720.587830	878.629700	741.169617	13.022997
280.988983	720.736389	893.490234	750.234558	17.075260
281.360870	723.559875	906.418884	753.949707	16.619270
281.732697	721.479309	909.391052	747.708313	13.958151
282.104492	723.411316	910.282654	745.702148	11.928438
282.476288	727.720886	907.533447	736.191345	4.710716
282.848053	730.470032	919.198975	740.723877	5.433107
283.219757	730.247131	917.341370	741.392578	5.957130
283.591461	724.302917	922.022461	753.726807	14.881629
283.963135	720.736389	911.991516	758.036316	19.502707
284.334747	722.742615	922.988464	751.126221	14.174379
284.706360	712.860352	934.505371	742.284180	13.275204
285.077942	721.553711	951.074890	740.872375	8.416942
285.449524	714.569275	948.028503	741.689697	11.616771
285.821014	715.683777	947.656982	743.844543	12.139664
286.192535	714.940735	953.526855	741.169617	10.993465
286.563995	713.380432	965.192383	737.454407	9.560299
286.935425	714.494934	965.043762	728.240967	5.486369
287.306824	709.888184	965.117981	722.816895	5.065518
287.678223	710.705566	962.591736	726.606262	6.312652
288.049561	718.581604	964.523621	734.631042	6.525700
288.420898	720.662109	968.758789	734.482422	5.570535
288.792145	726.680664	973.365540	737.825989	4.518041
289.163452	722.816895	974.182922	740.500977	7.035192
289.534668	723.857117	977.600891	745.702148	8.609091
289.905914	717.987122	984.956848	735.894226	6.707541
290.277039	717.764343	997.811218	738.271790	7.322862
290.648193	722.148193	1011.260010	751.497742	10.151626
291.019318	729.727051	1023.742859	756.476074	9.097818
291.390381	732.253357	1021.736633	753.652527	7.392196
291.761475	727.497986	1015.941101	743.324402	5.486841
292.132507	725.714600	1013.711975	742.952942	5.985590
292.503510	723.559875	1017.129944	745.999329	7.643645
292.874481	733.962219	1020.993713	756.030212	7.688353
293.245422	733.516418	1020.547913	751.720703	6.342260
293.616364	734.408142	1026.120483	746.073669	3.998983
293.987213	719.250305	1029.835693	735.819824	5.334932
294.358093	715.832458	1049.748779	746.890930	9.301274
294.728943	709.888184	1070.182007	747.856934	10.538274
295.099731	711.448547	1094.033203	743.398743	8.351144
295.470490	715.089355	1101.240723	733.442200	4.752759
295.841248	720.959290	1111.345825	728.909668	2.036540
296.211975	716.575439	1125.389038	729.875671	3.253373
296.582642	713.900574	1131.779053	737.603088	5.672107
296.953308	716.575439	1146.862427	737.751770	4.921443
297.323883	719.176025	1147.382690	731.956055	2.984547
297.694519	716.649719	1166.181274	731.881775	3.388429
298.065063	711.597168	1170.639404	739.757813	6.134652
298.435608	715.683777	1169.450562	744.959045	6.451611
298.806122	714.569275	1152.063599	742.729980	6.436816
299.176575	716.278137	1129.327026	743.844543	6.673884
299.547028	709.442383	1123.531494	744.290344	8.415570
299.917450	708.327820	1130.664551	741.987000	7.969749
300.287872	705.058411	1136.311523	730.470032	5.892507
300.658234	711.894348	1133.933960	737.900391	6.161991
301.028564	713.454773	1128.732544	738.569031	6.047581
301.398865	720.141907	1118.776001	749.714417	7.418460
301.769135	721.405090	1120.484985	749.194336	6.963329
302.139374	727.126404	1119.147583	748.897156	5.553463
302.509583	728.983948	1130.515869	736.785828	1.943029
302.879791	727.572266	1142.032837	729.578430	0.484042
303.249939	731.436035	1147.679810	726.606384	-1.160294
303.620087	722.371094	1145.450806	735.968445	3.213898
303.990173	721.850891	1131.704712	739.534973	4.314729
304.360260	717.021240	1141.364136	747.782532	7.249159
304.730286	722.296692	1152.286621	742.507141	4.700214
305.100281	726.531982	1157.116333	745.404968	4.383110
305.470276	729.281189	1153.624023	744.736145	3.642092
305.840179	733.293518	1157.859253	753.206726	4.690253
306.210144	727.943787	1163.506348	743.473083	3.565342
306.579987	733.590759	1178.441284	747.262451	3.073323
306.949890	733.070618	1179.109985	739.163513	1.365999
307.319702	735.894226	1200.286133	746.445129	2.271983
307.689484	729.652771	1199.543091	737.825989	1.739388
308.059265	731.213074	1214.329224	745.553467	2.968312
308.429016	730.172852	1223.171265	742.878601	2.577240
308.798737	728.315247	1238.477661	746.147949	3.495495
309.168396	722.593933	1257.053345	745.850769	4.351469
309.538055	726.011902	1273.994507	736.711426	1.952530
309.907684	725.937561	1290.266724	731.733154	1.026988
310.277313	719.844727	1300.297485	723.931396	0.704049
310.646851	711.374207	1314.340698	734.408020	3.820082
311.016388	709.516663	1327.418091	744.736145	5.699854
311.385895	717.764343	1336.111450	752.983704	5.695726
311.755371	716.575439	1333.436646	753.875427	6.046739
312.124817	712.860291	1330.167358	749.937317	6.006253
312.494232	712.563049	1334.328247	745.850769	5.353745
312.863617	719.027344	1329.795776	742.729980	3.880790
313.232971	727.720764	1324.000244	737.528809	1.644874
313.602295	725.491760	1318.947632	734.928223	1.590087
313.971619	729.875671	1328.235352	734.928223	0.844400
314.340820	730.767273	1338.860718	739.014893	1.356308
314.710083	739.460693	1354.092651	739.832214	0.060446
315.079285	727.943665	1370.959473	740.872375	2.010637
315.448486	730.098572	1393.918945	741.318176	1.690157
315.817596	719.696106	1393.919067	750.829041	4.617602
316.186707	721.107910	1373.560181	755.584412	5.284142
316.555786	713.083191	1353.498413	760.339783	7.379055
316.924866	712.042969	1334.402466	748.451355	5.850057
317.293884	721.405090	1337.523071	741.169678	3.207922
317.662872	726.086182	1336.037231	736.488525	1.705439
318.031830	722.073792	1354.464355	735.968445	2.197163
318.400757	719.919128	1366.575684	743.621582	3.665385
318.769684	716.203918	1378.538452	742.952881	4.038588
319.138550	723.559875	1372.742798	741.541199	2.769839
319.507416	713.380432	1379.875854	735.002502	3.244144
319.876190	706.916016	1375.714844	732.847717	3.877355
320.244995	711.076965	1395.479492	738.271790	3.973513
320.613770	722.445313	1386.563110	737.603027	2.282383
320.982483	726.977844	1387.083130	739.757874	1.936059
321.351166	716.278259	1376.160767	735.299744	2.882556
321.719818	709.070801	1377.498169	738.791992	4.446435
322.088440	707.882019	1390.501099	740.946777	4.843808
322.457062	715.980957	1405.733276	746.668030	4.448999
322.825623	721.107910	1423.194336	748.525574	3.905169
323.194183	733.665039	1440.135376	742.284180	1.220029
323.562653	735.225403	1464.432251	740.129456	0.672519
323.931183	732.922058	1502.847046	739.089172	0.801002
324.299591	718.507324	1541.335815	742.135559	2.871587
324.668060	715.312317	1560.505859	735.745544	2.417580
325.036407	716.203918	1577.818359	727.572266	1.319424
325.404755	723.337097	1577.446655	724.971680	0.191379
