Jaz Data File
++++++++++++++++++++++++++++++++++++
Date: Fri Jun 04 16:56:15 2021
User: jaz
Dark Spectrum Present: Yes
Reference Spectrum Present: Yes
Processed Spectrum Present: Yes
Spectrometers: JAZA3586
Integration Time (usec): 26900 (JAZA3586)
Spectra Averaged: 10 (JAZA3586)
Boxcar Smoothing: 1 (JAZA3586)
Correct for Electrical Dark: No (JAZA3586)
Strobe/Lamp Enabled: Yes (JAZA3586)
Correct for Detector Non-linearity: No (JAZA3586)
Correct for Stray Light: No (JAZA3586)
Number of Pixels in Processed Spectrum: 2048
>>>>>Begin Processed Spectral Data<<<<<
W	D	R	S	P
191.335022	0.000000	0.000000	0.000000	0.000000
191.713211	231.824478	223.576904	230.115524	20.720686
192.091385	465.580902	454.658356	467.809906	-20.407366
192.469528	703.795410	697.033875	700.377441	50.550186
192.847641	715.832458	712.340149	709.665283	176.593033
193.225739	725.120300	725.268860	713.603333	-7752.423828
193.603790	738.123230	728.761047	728.315247	104.761719
193.981842	739.089172	738.197571	738.271790	91.675797
194.359863	739.460632	743.324463	742.878601	88.460625
194.737854	732.624817	745.702148	748.079773	118.181267
195.115829	740.278015	744.216003	745.553467	133.963120
195.493774	746.890930	744.884766	745.479187	70.370255
195.871704	745.627747	747.856873	738.791931	-306.658997
196.249603	741.912598	747.485352	752.909485	197.333084
196.627457	744.661865	747.782532	758.705078	450.006836
197.005310	745.107727	743.175781	769.330383	-1253.795898
197.383133	743.324463	743.398743	751.126221	10503.205078
197.760910	734.036621	739.386414	749.491516	288.887756
198.138687	732.327637	735.894104	741.466980	256.257599
198.516449	729.281250	735.299805	743.844543	241.973267
198.894180	729.206848	732.624817	741.095398	347.825012
199.271866	735.299744	734.556641	736.860107	-209.979462
199.649536	736.934387	730.247070	737.008728	-1.111669
200.027191	736.042725	729.504089	742.952942	-105.682869
200.404816	733.962219	731.361633	741.987000	-308.575867
200.782410	733.367859	754.321289	747.559753	67.730652
201.159988	737.454529	773.788574	743.695984	17.177980
201.537537	735.151123	779.138367	747.931213	29.054083
201.915070	731.658875	774.457275	740.129395	19.791674
202.292557	737.454529	775.943359	733.665039	-9.845687
202.670029	740.426575	783.522217	731.064453	-21.724056
203.047485	742.284180	778.692566	732.996338	-25.510172
203.424911	730.098572	769.701904	739.683594	24.202564
203.802292	728.018066	760.042480	741.169617	41.067265
204.179688	728.166687	759.968201	749.565857	67.289787
204.557037	732.699158	756.104492	746.296570	58.095356
204.934357	727.423645	767.547180	749.937317	56.110889
205.311661	730.470032	764.277832	742.581360	35.824066
205.688934	726.383362	771.039368	739.237793	28.785448
206.066177	728.166687	760.711243	739.163513	33.790066
206.443390	717.541321	768.587402	740.575195	45.123688
206.820587	723.039734	772.451111	745.553528	45.563988
207.197769	728.092346	776.166260	738.271790	21.174568
207.574921	731.213074	773.491394	738.271790	16.695827
207.952042	731.510254	767.175598	731.881653	1.041344
208.329147	725.714661	766.581116	735.002441	22.727150
208.706223	728.463867	778.766785	742.655701	28.212744
209.083267	718.730225	781.590332	744.290344	40.661907
209.460297	714.717834	779.509827	744.587585	46.100990
209.837280	715.460876	770.965088	736.488586	37.884892
210.214264	715.163757	768.736023	745.702087	57.003994
210.591217	727.052063	772.748291	745.627747	40.650364
210.968124	728.018066	770.816406	752.835205	57.986217
211.345016	736.637146	770.593567	746.296570	28.446531
211.721893	729.206848	763.386169	743.695984	42.391525
212.098724	721.256531	751.869324	735.299805	45.873875
212.475555	717.467102	755.064270	731.733215	37.944649
212.852356	712.265930	756.847473	736.785828	55.000111
213.229126	721.330750	768.290100	740.649475	41.139252
213.605865	715.609436	765.318054	742.209961	53.512905
213.982590	722.296692	764.946472	735.151184	30.139645
214.359283	716.129639	755.138489	729.949951	35.428658
214.735931	724.005676	754.321228	737.900330	45.833416
215.112579	722.296814	755.807312	731.956116	28.824703
215.489197	725.343079	759.225281	739.312073	41.228119
215.865799	720.439148	750.531738	727.423645	23.210022
216.242355	717.021301	753.875488	726.309082	25.201426
216.618896	712.934631	757.144714	718.804504	13.277227
216.995407	711.968689	766.283997	721.627991	17.783756
217.371902	714.049133	764.872253	730.841553	33.040905
217.748367	719.621826	759.893860	730.395691	26.752720
218.124802	722.891113	757.441895	733.590820	30.968061
218.501236	721.256531	755.064270	730.098572	26.153896
218.877609	711.299988	755.212891	734.259521	52.284256
219.253983	714.123352	758.333496	730.693054	37.479412
219.630295	715.312256	760.562683	737.083008	48.111706
220.006592	720.216309	758.556458	730.395752	26.550348
220.382889	716.946960	753.875427	733.442139	44.667919
220.759140	720.662109	754.841309	728.835388	23.913021
221.135391	726.383484	756.996094	729.206848	9.222880
221.511581	726.754944	762.866028	727.497864	2.057318
221.887772	727.646545	759.893982	726.903503	-2.304189
222.263931	728.835388	769.256042	732.476257	9.007447
222.640060	725.788879	762.568848	734.408020	23.434334
223.016159	716.055359	765.838196	740.278015	48.656643
223.392212	713.083191	765.392395	736.117004	44.033958
223.768265	717.912903	772.005310	737.231628	35.714302
224.144302	728.389465	775.348877	737.380188	19.145731
224.520294	722.965393	780.252869	738.123230	26.459251
224.896286	727.126465	777.429382	738.791992	23.190557
225.272217	727.349365	776.091980	739.609314	25.152424
225.648148	729.281189	769.479004	740.946777	29.020454
226.024048	727.349365	766.952698	731.436035	10.319005
226.399902	729.206848	768.884521	722.668274	-16.479227
226.775772	731.138733	765.020813	716.724121	-42.543468
227.151581	728.240967	774.977356	728.612488	0.794929
227.527374	725.120300	771.485107	733.219238	17.467857
227.903137	725.194580	770.519226	737.603088	27.376955
228.278870	721.776611	765.095154	728.315247	15.094311
228.654572	721.256531	765.689514	724.302917	6.856138
229.030273	723.931396	767.398499	720.587830	-7.692178
229.405930	727.646484	770.742188	726.606262	-2.413749
229.781555	721.107910	769.999207	728.315247	14.741553
230.157181	719.770508	775.794739	736.785828	30.371359
230.532761	710.334045	776.463379	735.819824	38.539295
230.908325	713.528992	774.605774	738.494812	40.876122
231.283859	714.792175	772.822571	734.853943	34.571136
231.659332	722.519714	766.878357	738.123230	35.175819
232.034821	723.039795	774.011414	741.541199	36.297462
232.410263	719.770508	771.410828	743.918762	46.762402
232.785690	722.148132	770.593506	744.959167	47.086098
233.161087	726.457703	770.742188	744.290344	40.268372
233.536469	723.114075	775.646179	736.785828	26.025518
233.911804	720.810730	776.983582	728.315247	13.359686
234.287140	712.414490	773.045471	721.330811	14.705882
234.662430	713.974854	764.872253	726.903503	25.401396
235.037704	719.027405	758.779358	729.949951	27.476753
235.412933	723.931396	758.556458	737.157288	38.197453
235.788162	727.423645	761.974426	737.825989	30.107405
236.163345	725.343079	769.627625	743.324402	40.604061
236.538513	725.714661	767.398499	738.791992	31.372667
236.913635	722.668213	768.438782	735.745544	28.571486
237.288742	711.076965	767.101318	729.875671	33.554527
237.663834	713.231873	767.992981	741.095398	50.881962
238.038879	718.507324	768.810242	739.163513	41.063599
238.413910	725.640381	770.742126	737.528809	26.359131
238.788910	725.343201	773.194092	730.172852	10.093126
239.163879	730.544250	770.593445	737.677429	17.811041
239.538834	730.841492	773.714172	747.262451	38.301685
239.913757	729.206848	771.336609	747.708313	43.915428
240.288651	717.244141	767.101318	746.742371	59.165462
240.663528	715.312317	772.153870	743.918884	50.326859
241.038361	716.203918	778.098145	742.135559	41.896706
241.413177	722.742615	790.283752	740.129395	25.742504
241.787979	725.268860	781.367432	730.692932	9.668824
242.162735	722.668274	787.831787	732.847717	15.621386
242.537476	718.284363	787.088684	739.757874	31.209538
242.912170	713.974854	802.692383	744.810547	34.757160
243.286865	716.129578	799.868835	748.971436	39.219189
243.661514	723.039734	803.583984	739.683594	20.664244
244.036148	728.612488	795.336365	736.785828	12.249497
244.410751	730.321472	796.079346	733.665039	5.084664
244.785339	719.919128	795.782166	744.513184	32.419022
245.159882	718.804504	802.097839	748.674133	35.860767
245.534378	720.662109	799.571594	742.358459	27.495237
245.908890	727.126465	796.227966	734.853821	11.182616
246.283356	733.813660	792.067078	733.739319	-0.127616
246.657791	730.841553	797.862610	743.324402	18.625265
247.032196	723.039734	808.785095	746.668030	27.556355
247.406586	715.386536	814.803650	749.342957	34.155510
247.780960	715.163757	827.732361	741.689758	23.564299
248.155289	719.398926	834.568176	733.070618	11.870956
248.529602	719.919128	839.472168	726.160461	5.220556
248.903870	722.073914	829.367004	729.429749	6.855833
249.278122	722.222412	819.410400	735.894104	14.067266
249.652344	723.336975	813.837646	739.014832	17.323469
250.026550	718.358704	811.905762	740.055115	23.193045
250.400711	725.491760	809.602356	739.609192	16.784369
250.774857	722.593994	807.224670	736.860046	16.856834
251.148987	732.476257	807.967773	736.637146	5.511730
251.523071	727.943665	813.837646	732.847717	5.709425
251.897125	728.612488	814.729309	739.832214	13.028496
252.271164	714.494934	817.701416	732.104736	17.062691
252.645187	711.597168	816.735535	734.185242	21.484140
253.019165	708.402161	820.896484	729.504089	18.758217
253.393112	713.826233	816.958435	729.578430	15.273791
253.767044	714.346375	815.175110	731.584656	17.096596
254.140930	725.788879	804.401306	733.367859	9.640944
254.514801	718.878845	802.246399	740.129456	25.490265
254.888657	724.897400	800.166016	744.216125	25.666376
255.262466	723.411316	812.128723	749.194336	29.061962
255.636276	735.002502	815.546692	750.085938	18.726906
256.010010	733.070618	822.159668	741.689758	9.674747
256.383759	724.377258	826.172058	737.900391	13.284698
256.757446	720.885010	830.630127	736.117004	13.879428
257.131134	715.758118	831.521790	744.364685	24.711178
257.504791	719.398987	829.887024	749.863037	27.572262
257.878418	715.832458	836.871582	754.024109	31.553144
258.252014	714.569336	855.595886	750.011719	25.131710
258.625580	715.832458	871.050781	743.844543	18.046894
258.999115	721.330811	893.861633	742.209961	12.101693
259.372650	726.086243	902.778015	742.209900	9.125301
259.746124	720.067688	921.502380	736.042725	7.930628
260.119598	710.408264	937.254578	732.699158	9.826429
260.493042	706.990417	950.851990	731.510254	10.054817
260.866425	711.076965	960.511292	741.392578	12.153746
261.239838	715.683777	950.926270	743.027161	11.623488
261.613159	717.392761	937.403137	744.290344	12.225597
261.986511	721.107910	912.288879	745.850769	12.942114
262.359802	725.566101	896.536621	737.008728	6.692749
262.733063	730.024231	886.431458	734.482422	2.850374
263.106293	729.355530	886.208557	725.863281	-2.226446
263.479523	736.562805	884.351013	731.361633	-3.519342
263.852692	732.922058	881.304504	735.076843	1.452183
264.225861	729.875671	881.378845	740.278015	6.866090
264.598969	722.296692	882.864807	740.723816	11.476204
264.972076	723.857117	890.666687	736.117004	7.349631
265.345154	729.652649	891.261169	731.658875	1.241411
265.718201	730.544373	903.966980	736.860046	3.641782
266.091217	731.138733	914.517883	735.299744	2.269075
266.464203	722.965515	928.189514	734.333740	5.539423
266.837158	721.627991	936.065674	730.990234	4.365951
267.210114	721.405090	947.582520	732.773438	5.026296
267.583038	724.228577	962.666016	741.764099	7.354350
267.955902	724.080017	965.563782	737.974609	5.753841
268.328766	725.640381	974.405945	748.525635	9.199527
268.701569	725.863281	967.421387	747.039551	8.766532
269.074371	726.309143	971.508057	748.897217	9.212143
269.447144	719.250427	972.845459	737.231628	7.090518
269.819885	716.872620	988.374756	731.361633	5.336611
270.192596	714.866516	994.096008	737.082947	7.956334
270.565277	723.411316	1006.727539	740.872375	6.163099
270.937927	724.971680	1021.662354	750.011536	8.439718
271.310577	726.606384	1053.241089	738.717590	3.707875
271.683136	717.318542	1078.652588	738.271790	5.798858
272.055725	720.810730	1106.218872	739.237732	4.781166
272.428284	715.609558	1112.757568	748.228333	8.213254
272.800812	724.302917	1114.540894	745.256348	5.369398
273.173279	719.844788	1101.314941	739.089172	5.044795
273.545776	726.457703	1109.116699	738.643311	3.184456
273.918152	720.885071	1102.057983	744.290344	6.140330
274.290558	720.885071	1099.828979	741.243896	5.372517
274.662964	715.683838	1084.076782	737.974609	6.050814
275.035278	720.067688	1082.293457	740.129395	5.538454
275.407593	720.513489	1095.073486	742.432800	5.852016
275.779907	721.851013	1107.779175	748.154114	6.815543
276.152161	716.798340	1123.234253	743.918884	6.672773
276.524384	714.494934	1127.692383	737.305908	5.520599
276.896606	721.107910	1147.828491	733.665039	2.942705
277.268799	714.643555	1161.128540	735.076904	4.576492
277.640930	720.141907	1172.496948	741.169617	4.648497
278.013031	714.346375	1163.432007	748.674255	7.643950
278.385162	719.250305	1164.843750	751.274719	7.186913
278.757233	711.077148	1162.688843	753.058105	9.295808
279.129272	711.671448	1175.171875	751.720642	8.640594
279.501282	714.717957	1186.540161	749.417236	7.354312
279.873230	717.838562	1203.778320	746.370850	5.871569
280.245178	719.027405	1222.576904	738.420471	3.851273
280.617126	719.324646	1243.827515	738.123230	3.584076
280.988983	716.872620	1269.610474	740.055115	4.194121
281.360870	706.470276	1287.369019	742.729980	6.242001
281.732697	702.755188	1313.597778	737.603210	5.704910
282.104492	705.801575	1338.414917	735.522705	4.698151
282.476288	714.272034	1366.204102	734.556824	3.111488
282.848053	720.587708	1385.151367	738.791992	2.739284
283.219757	722.668213	1396.891113	739.906494	2.556763
283.591461	726.829163	1403.801392	749.491516	3.347605
283.963135	723.039795	1399.640259	756.476013	4.941796
284.334747	714.940735	1397.114258	756.475891	6.088650
284.706360	710.259766	1418.884766	751.497620	5.819418
285.077942	707.287598	1453.658325	747.336731	5.365850
285.449524	716.129639	1487.540405	755.732971	5.133884
285.821014	716.352539	1496.828125	749.045715	4.188879
286.192535	722.965515	1511.985962	745.924988	2.909870
286.563995	717.764343	1537.397827	741.466797	2.891836
286.935425	714.866455	1566.152832	747.485352	3.831718
287.306824	715.683777	1568.233398	748.599915	3.860906
287.678223	723.931458	1554.561523	740.278015	1.967971
288.049561	734.036621	1536.208618	733.442139	-0.074109
288.420898	732.179016	1520.530884	736.711487	0.574930
288.792145	736.191345	1516.221191	740.575195	0.562011
289.163452	732.401917	1522.239868	744.067444	1.476952
289.534668	730.321472	1549.731812	742.655762	1.505264
289.905914	723.114075	1576.852173	741.912659	2.201915
290.277039	723.857117	1612.963379	743.844543	2.248036
290.648193	728.092346	1651.526733	734.110901	0.651758
291.019318	730.915833	1693.804810	730.321472	-0.061727
291.390381	735.002502	1715.575562	734.185242	-0.083345
291.761475	732.253418	1715.798462	741.912659	0.982084
292.132507	726.532043	1702.795410	745.850769	1.978844
292.503510	714.866455	1689.049438	743.547363	2.944099
292.874481	718.061523	1673.297363	745.107727	2.831364
293.245422	722.073914	1679.390137	751.646301	3.089093
293.616364	729.206848	1696.331055	752.092102	2.366320
293.987213	726.606384	1740.095337	752.686584	2.573309
294.358093	732.104736	1787.277710	747.708313	1.478770
294.728943	730.321472	1849.469116	744.513367	1.268098
295.099731	727.126404	1901.629761	741.169678	1.195678
295.470490	715.535156	1936.254517	743.324402	2.276465
295.841248	717.541443	1960.402954	741.763977	1.948933
296.211975	719.176086	1987.300659	740.872375	1.710896
296.582642	726.160583	2035.077271	742.804382	1.271570
296.953308	721.033630	2082.185059	743.101563	1.621269
297.323883	721.405090	2127.063965	746.742371	1.802520
297.694519	728.538147	2156.041992	742.209900	0.957738
298.065063	728.686768	2159.757324	748.154114	1.360335
298.435608	727.423645	2126.915527	742.952942	1.109638
298.806122	718.581604	2070.148193	742.135559	1.742715
299.176575	720.959290	2008.774048	743.993164	1.788602
299.547028	722.148132	1959.139771	745.404846	1.880103
299.917450	719.993408	1933.356812	744.141785	1.990201
300.287872	718.358704	1927.486938	739.757813	1.769797
300.658234	720.587830	1937.443359	740.872375	1.666964
301.028564	724.897278	1937.963501	746.073669	1.745691
301.398865	726.903503	1928.973022	746.370850	1.619486
301.769135	726.309082	1923.474487	755.361511	2.426768
302.139374	724.971680	1919.684937	758.928040	2.842218
302.509583	726.383362	1928.601196	757.367676	2.577263
302.879791	721.330872	1935.362915	746.445129	2.068665
303.249939	719.621887	1935.140137	739.163513	1.607678
303.620087	721.107910	1923.103027	741.318176	1.681393
303.990173	724.748779	1904.898926	748.971436	2.052506
304.360260	730.172852	1898.880249	749.491516	1.652994
304.730286	730.098450	1904.973145	741.243958	0.948655
305.100281	730.395691	1913.369141	738.569031	0.690915
305.470276	730.990173	1928.972778	740.352295	0.781491
305.840179	732.253235	1952.229492	747.262390	1.230283
306.210144	730.024231	1976.675171	740.203796	0.816553
306.579987	717.392822	1995.325195	740.723816	1.825683
306.949890	706.990417	2007.213501	735.225403	2.171549
307.319702	711.745789	2022.445679	741.243958	2.250566
307.689484	723.039795	2038.420898	739.386414	1.242729
308.059265	732.327637	2069.256592	746.222229	1.039292
308.429016	731.733215	2112.723633	746.073547	1.038409
308.798737	725.714661	2176.103760	750.680420	1.721315
309.168396	725.343079	2225.069336	750.234558	1.659735
309.538055	722.445313	2266.381592	750.903320	1.843211
309.907684	728.538086	2287.409180	748.674133	1.291707
310.277313	731.658875	2309.997314	742.209900	0.668489
310.646851	731.213074	2330.578857	738.346130	0.445993
311.016388	728.463867	2347.594482	730.321472	0.114729
311.385895	728.686768	2351.606689	737.380188	0.535665
311.755371	736.340027	2347.446045	735.522644	-0.050734
312.124817	738.717590	2346.554443	745.850769	0.443651
312.494232	730.544373	2348.263184	748.525635	1.111520
312.863617	721.627991	2345.588135	754.692688	2.036053
313.232971	714.049133	2341.947510	753.429626	2.419100
313.602295	716.946960	2323.817627	746.445129	1.835753
313.971619	716.501160	2323.817627	745.627869	1.812133
314.340820	712.414551	2321.216797	742.432800	1.865876
314.710083	709.516663	2363.718018	750.085999	2.452503
315.079285	708.402161	2404.213135	746.147949	2.225825
315.448486	721.776672	2449.389160	752.315125	1.767668
315.817596	720.587830	2450.132080	745.479248	1.439190
316.186707	724.080078	2408.299805	746.965271	1.358801
316.555786	720.216309	2353.167236	747.262451	1.656274
316.924866	722.222473	2305.687744	747.262390	1.581337
317.293884	727.423645	2294.170654	749.640137	1.418001
317.662872	730.172852	2293.502197	746.519348	1.045621
318.031830	722.445313	2310.517578	750.457520	1.763913
318.400757	720.587830	2319.730713	747.113953	1.658771
318.769684	721.999512	2331.544922	751.423401	1.828087
319.138550	728.241028	2346.405518	752.389404	1.492331
319.507416	724.228699	2373.006104	758.333557	2.068494
319.876190	720.141907	2386.529053	759.596741	2.367687
320.244995	722.073792	2386.157715	762.197327	2.411149
320.613770	722.371094	2358.962891	758.110657	2.183780
320.982483	721.702332	2338.529541	756.921814	2.178308
321.351166	722.222473	2316.684570	748.971375	1.677613
321.719818	720.067688	2313.638428	757.441956	2.345316
322.088440	717.764343	2317.873291	748.525696	1.922454
322.457062	718.878845	2339.124023	746.668152	1.715130
322.825623	720.662109	2375.904053	745.404968	1.494818
323.194183	720.959290	2426.058350	751.869324	1.812800
323.562653	726.829285	2481.042236	760.116882	1.897580
323.931183	731.287415	2549.697754	752.760925	1.180895
324.299591	732.922058	2615.084229	755.287170	1.188267
324.668060	726.606262	2674.452393	759.299561	1.678433
325.036407	721.033630	2709.597412	761.157043	2.017708
