Jaz Data File
++++++++++++++++++++++++++++++++++++
Date: Fri Jun 04 16:53:19 2021
User: jaz
Dark Spectrum Present: Yes
Reference Spectrum Present: Yes
Processed Spectrum Present: Yes
Spectrometers: JAZA3586
Integration Time (usec): 24600 (JAZA3586)
Spectra Averaged: 10 (JAZA3586)
Boxcar Smoothing: 1 (JAZA3586)
Correct for Electrical Dark: No (JAZA3586)
Strobe/Lamp Enabled: Yes (JAZA3586)
Correct for Detector Non-linearity: No (JAZA3586)
Correct for Stray Light: No (JAZA3586)
Number of Pixels in Processed Spectrum: 2048
>>>>>Begin Processed Spectral Data<<<<<
W	D	R	S	P
191.335022	0.000000	0.000000	0.000000	0.000000
191.713211	227.812149	233.756348	231.007156	53.750011
192.091385	455.401367	470.633423	467.438446	79.024651
192.469528	695.027649	713.083191	704.538391	52.674919
192.847641	705.281433	715.386536	716.946960	115.441948
193.225739	723.634216	724.748718	726.457703	253.340637
193.603790	731.584534	727.275085	734.185242	-60.348980
193.981842	739.757813	742.507080	745.925049	224.322891
194.359863	740.649475	740.798096	746.816650	4149.609863
194.737854	744.141785	746.890930	755.510071	413.520721
195.115829	742.284241	741.243958	753.206604	-1049.941284
195.493774	742.655762	746.445129	755.584412	341.182251
195.871704	739.609314	740.055176	756.327454	3749.623535
196.249603	745.256348	746.222229	749.343018	423.102692
196.627457	745.702148	748.674133	750.680420	167.506622
197.005310	744.439026	752.835144	747.336731	34.512440
197.383133	741.689758	753.875427	748.079773	52.438766
197.760910	735.076843	761.602844	744.736145	36.414467
198.138687	738.049011	765.838196	738.197449	0.534156
198.516449	736.191345	752.983826	737.825989	9.734378
198.894180	749.788757	743.398743	737.751709	188.372787
199.271866	750.085999	743.472961	744.959167	77.526123
199.649536	751.274902	751.497742	745.553528	-2567.488281
200.027191	749.342957	753.132385	742.061340	-192.156036
200.404816	752.760925	750.457520	739.163513	590.317688
200.782410	750.308899	760.265381	737.974609	-123.882004
201.159988	742.952881	773.119812	741.615479	-4.433339
201.537537	735.671204	777.206482	741.541199	14.132553
201.915070	735.151184	784.116699	743.027161	16.084742
202.292557	731.064453	777.578064	744.587585	29.073496
202.670029	735.522644	780.772949	742.358459	15.106672
203.047485	736.042786	774.234375	742.061279	15.758689
203.424911	739.832214	775.571777	735.374023	-12.474106
203.802292	732.030457	776.686340	741.615540	21.464323
204.179688	728.686768	769.924805	734.482422	14.054147
204.557037	725.566101	758.184998	736.488586	33.485146
204.934357	724.451477	759.225281	734.259460	28.205091
205.311661	722.816895	760.116882	733.516418	28.685061
205.688934	724.377258	763.163269	738.494812	36.398571
206.066177	725.120300	758.036377	732.030457	20.993256
206.443390	730.544434	759.002258	736.340027	20.365553
206.820587	728.761169	761.825745	739.906494	33.707752
207.197769	722.965515	764.203430	740.054993	41.441177
207.574921	721.553711	757.813477	734.556702	35.860657
207.952042	718.210144	756.847473	727.052063	22.884396
208.329147	721.330811	761.602844	733.070618	29.151264
208.706223	727.126465	778.543884	755.881592	55.924873
209.083267	733.813721	777.875183	749.194336	34.907185
209.460297	745.404968	764.426453	742.209961	-16.796835
209.837280	734.853943	752.686523	726.532043	-46.666828
210.214264	733.219238	755.510071	726.829285	-28.666285
210.591217	719.547546	763.460449	718.135803	-3.214871
210.968124	720.513489	763.831970	717.318542	-7.375481
211.345016	714.123474	763.906250	719.473206	10.746149
211.721893	713.677551	762.123047	726.606384	26.687380
212.098724	713.528992	764.723633	724.971680	22.351339
212.475555	717.764221	758.482239	728.835449	27.189997
212.852356	718.507324	753.875427	736.488586	50.840336
213.229126	714.420593	755.435730	738.049011	57.609020
213.605865	713.900574	759.076599	737.825989	52.960426
213.982590	721.553711	764.352051	729.132568	17.708298
214.359283	731.733215	758.630676	731.881775	0.552318
214.735931	737.900330	759.002258	730.841492	-33.451149
215.112579	735.299744	759.448059	731.658875	-15.077114
215.489197	728.909668	757.664856	732.030457	10.852959
215.865799	715.906738	747.559631	730.024231	44.600956
216.242355	709.516663	740.129395	725.268860	51.456360
216.618896	705.950134	738.866211	722.296692	49.661320
216.995407	700.154541	745.776367	721.330811	46.416969
217.371902	698.594238	745.479187	726.606262	59.746304
217.748367	703.200989	746.445129	728.686768	58.934639
218.124802	713.008850	748.302734	730.990173	50.947418
218.501236	716.426819	754.915588	728.389648	31.081350
218.877609	716.724060	761.825745	719.473328	6.095709
219.253983	721.553711	768.141541	714.123352	-15.949142
219.630295	725.863220	773.416992	715.609436	-21.562504
220.006592	727.423584	768.810242	718.433044	-21.723280
220.382889	724.897278	761.231445	725.268860	1.022679
220.759140	723.634094	762.048767	728.983948	13.926589
221.135391	721.999512	764.946533	733.739319	27.335556
221.511581	719.250305	757.962097	728.612488	24.184317
221.887772	714.792175	749.342957	728.092285	38.494381
222.263931	707.287598	745.404846	729.504089	58.284615
222.640060	707.436218	755.881592	727.720886	41.871220
223.016159	711.968689	757.219055	731.064453	42.200241
223.392212	718.953125	762.866028	725.120300	14.044107
223.768265	726.829163	756.030212	731.956116	17.557428
224.144302	725.714661	758.853699	729.429749	11.210608
224.520294	732.104675	760.191162	726.457703	-20.105658
224.896286	724.080078	766.061035	720.216309	-9.203624
225.272217	725.417480	767.101318	722.148132	-7.843203
225.648148	720.513489	765.020813	730.098450	21.535694
226.024048	723.931396	771.633789	733.516418	20.093378
226.399902	724.005676	766.358215	727.200684	7.543839
226.775772	721.033630	769.033203	725.566101	9.442731
227.151581	722.965515	763.534729	728.538147	13.736110
227.527374	724.674500	762.717468	735.299744	27.929586
227.903137	724.302979	759.745361	731.436035	20.125782
228.278870	721.776672	766.135437	730.098633	18.760578
228.654572	716.946960	772.153992	729.206970	22.207335
229.030273	719.027405	773.119812	729.058350	18.544090
229.405930	718.730164	768.215820	732.179016	27.177275
229.781555	712.637390	773.045471	727.200684	24.108187
230.157181	708.699402	778.469666	731.807556	33.120350
230.532761	705.429993	778.618164	727.423645	30.050829
230.908325	713.900574	770.073425	731.287415	30.952391
231.283859	718.284424	765.763855	736.265625	37.871559
231.659332	720.885010	767.398499	747.782532	57.827358
232.034821	718.432922	766.283997	748.079773	61.956501
232.410263	717.095520	760.042664	742.061340	58.131504
232.785690	724.377197	762.791809	735.448425	28.820356
233.161087	725.789001	770.965088	731.584656	12.829031
233.536469	723.411316	775.125977	733.739319	19.971132
233.911804	717.318420	764.054871	724.600098	15.580296
234.287140	717.764343	755.658691	729.429749	30.784023
234.662430	718.655945	761.602844	728.983948	24.048309
235.037704	714.346375	766.729797	739.237793	47.517738
235.412933	710.779785	777.206543	743.175781	48.769497
235.788162	711.299988	767.101318	743.770264	58.189072
236.163345	718.581726	767.621399	741.689758	47.121098
236.538513	722.371094	756.773193	730.618652	23.973997
236.913635	728.463867	759.448059	725.640381	-9.112667
237.288742	724.674500	762.717468	724.600098	-0.195573
237.663834	728.612549	767.844299	732.550476	10.037602
238.038879	728.389648	769.627625	737.380188	21.801601
238.413910	733.219238	771.633789	735.151062	5.028885
238.788910	730.247070	770.370605	734.630920	10.925882
239.163879	721.925232	776.834961	730.915771	16.373308
239.538834	719.919006	779.658508	735.299744	25.746344
239.913757	715.386536	777.578064	740.278015	40.023907
240.288651	724.005676	777.503662	742.135559	33.888908
240.663528	716.946960	767.472839	737.083008	39.852940
241.038361	717.318420	772.674011	730.618652	24.026899
241.413177	712.117188	772.674011	726.532043	23.803850
241.787979	715.460876	777.652344	733.962341	29.749201
242.162735	724.748718	775.868958	733.293640	16.715340
242.537476	723.485596	767.324219	730.098572	15.084817
242.912170	726.903564	772.674011	730.395752	7.629787
243.286865	717.615723	778.618225	730.098572	20.462847
243.661514	722.222473	795.039063	740.129395	24.591816
244.036148	727.275085	798.308411	735.299744	11.297033
244.410751	724.971680	802.320801	735.968445	14.217052
244.785339	716.798340	791.323975	732.847839	21.535542
245.159882	710.705505	785.676941	737.751709	36.075344
245.534378	718.433044	780.624329	738.791992	32.736015
245.908890	725.417480	791.769836	736.191406	16.237442
246.283356	724.748718	791.769836	726.457703	2.549919
246.657791	712.860291	796.227966	723.188416	12.388644
247.032196	712.042969	794.518982	730.692932	22.612591
247.406586	710.556946	803.955383	738.940613	30.389874
247.780960	717.987244	811.088562	747.708313	31.923361
248.155289	720.810730	816.661194	746.147949	26.434113
248.529602	720.885071	813.020447	741.020996	21.854717
248.903870	724.600159	798.605652	735.151123	14.257002
249.278122	727.572205	786.494324	734.705322	12.106010
249.652344	734.185120	787.831787	740.872498	12.465598
250.026550	732.624756	794.890442	742.284180	15.513238
250.400711	728.463867	803.435364	741.466858	17.343912
250.774857	722.668274	797.788330	736.042786	17.804182
251.148987	726.754883	800.240295	729.206970	3.336836
251.523071	720.513489	798.382813	726.457703	7.633576
251.897125	717.541321	803.732605	721.033508	4.051672
252.271164	715.460938	803.658203	718.284424	3.201331
252.645187	718.358704	800.834717	717.021301	-1.621565
253.019165	718.878845	801.800598	721.776672	3.494653
253.393112	715.386536	806.184509	728.315247	14.238986
253.767044	712.265869	811.014160	732.476257	20.466570
254.140930	713.231750	811.905762	731.287415	18.298298
254.514801	708.699402	804.475586	728.018066	20.170635
254.888657	707.436218	806.481750	725.789063	18.529705
255.262466	707.584778	808.190674	729.727051	22.008923
255.636276	714.569336	814.209167	730.767273	16.256487
256.010010	725.045959	819.707520	735.448303	10.988984
256.383759	726.977783	818.147278	730.247131	3.586011
256.757446	725.268860	815.695251	732.104675	7.559536
257.131134	726.457703	807.967834	734.631042	10.027391
257.504791	732.922058	807.744873	738.940613	8.043743
257.878418	729.727051	818.221619	736.860046	8.060377
258.252014	721.033630	830.630127	733.144958	11.050835
258.625580	713.083191	857.527771	732.699158	13.580272
258.999115	723.336975	870.010559	735.225403	8.105364
259.372650	727.572266	890.369446	730.247070	1.643029
259.746124	730.915833	907.979309	733.813660	1.636604
260.119598	730.172852	925.589050	736.042786	3.003811
260.493042	724.674377	937.700378	732.847717	3.836780
260.866425	719.547546	929.527039	729.429871	4.706328
261.239838	716.798340	920.462097	723.559875	3.319950
261.613159	716.575439	903.892578	729.206848	6.743328
261.986511	723.782776	898.617004	722.371094	-0.807440
262.359802	720.587830	898.171204	722.816895	1.255222
262.733063	726.457703	888.586243	716.575500	-6.095288
263.106293	723.336975	890.815369	720.959290	-1.419697
263.479523	724.080078	880.413025	714.792175	-5.941104
263.852692	720.216309	882.121887	718.655945	-0.963749
264.225861	717.021301	872.165344	723.336975	4.070845
264.598969	716.798340	875.731934	732.996338	10.191677
264.972076	717.318420	881.378906	736.860107	11.911270
265.345154	720.884949	885.539795	729.801270	5.415158
265.718201	720.290527	884.425293	727.275085	4.255380
266.091217	722.296692	894.679016	727.126465	2.801780
266.464203	723.782898	904.189880	740.055115	9.019727
266.837158	725.640381	917.192871	747.782654	11.559376
267.210114	720.662109	921.502380	750.011658	14.613379
267.583038	718.730164	932.944885	741.541199	10.648678
267.955902	725.789001	940.672424	731.658936	2.731683
268.328766	732.030457	944.313293	721.702332	-4.865266
268.701569	735.448303	944.536133	721.776672	-6.538702
269.074371	728.389587	953.898254	730.098572	0.757835
269.447144	730.098450	965.192383	733.144958	1.295869
269.819885	727.126465	967.793030	729.875671	1.142330
270.192596	719.844727	974.926086	724.228699	1.718656
270.565277	716.501160	986.888855	726.829163	3.819701
270.937927	712.488770	1007.470642	721.702332	3.123433
271.310577	719.919128	1027.829590	719.547546	-0.120679
271.683136	716.129639	1046.999634	724.897278	2.649874
272.055725	719.324707	1070.330688	734.556641	4.339508
272.428284	714.866455	1080.287476	737.751709	6.262709
272.800812	714.272034	1081.104614	732.773438	5.043555
273.173279	706.841797	1075.829224	733.516541	7.229174
273.545776	706.990417	1074.714478	735.002502	7.617692
273.918152	706.544617	1070.925049	731.881836	6.953507
274.290558	719.324646	1062.974609	736.191406	4.908122
274.662964	722.668274	1060.076904	737.677429	4.448361
275.035278	724.674500	1062.231812	740.500916	4.688512
275.407593	720.736389	1069.587524	739.312012	5.324799
275.779907	722.519714	1082.070557	740.278015	4.939023
276.152161	725.714661	1096.633911	741.466858	4.246799
276.524384	719.547546	1100.348999	735.745605	4.253676
276.896606	716.278259	1099.308716	728.686768	3.239562
277.268799	713.008850	1101.612183	724.897278	3.059271
277.640930	718.730225	1120.262085	725.268860	1.628422
278.013031	721.405090	1126.280640	724.823059	0.844202
278.385162	727.423645	1124.051636	725.417480	-0.505805
278.757233	720.290527	1112.088867	729.355469	2.313675
279.129272	720.885010	1121.451050	728.240967	1.836391
279.501282	714.940735	1126.503540	725.714661	2.617808
279.873230	721.405090	1142.181396	727.423645	1.430345
280.245178	721.627991	1153.772705	732.624817	2.544709
280.617126	732.922058	1182.527832	737.900330	1.107253
280.988983	735.819824	1211.357300	730.247070	-1.171885
281.360870	737.083008	1240.558228	735.448303	-0.324684
281.732697	730.024231	1264.335083	731.956055	0.361554
282.104492	731.881836	1286.031372	738.123230	1.126301
282.476288	725.120300	1307.802124	736.117126	1.887278
282.848053	727.572266	1337.597534	743.101563	2.545681
283.219757	718.358704	1344.433350	742.804260	3.904575
283.591461	728.240967	1338.712036	742.209961	2.288232
283.963135	723.857117	1319.319092	744.661926	3.493894
284.334747	733.442200	1323.703003	741.243958	1.321748
284.706360	726.234802	1343.616211	741.466797	2.467194
285.077942	718.655823	1375.789185	733.144836	2.204882
285.449524	711.968689	1407.739380	731.807434	2.851334
285.821014	713.380432	1428.395508	726.532043	1.839347
286.192535	727.349365	1448.234375	733.442200	0.845188
286.563995	730.024231	1464.655273	726.903503	-0.424802
286.935425	731.584534	1477.732544	724.971680	-0.886266
287.306824	727.423645	1477.583984	717.392761	-1.337165
287.678223	721.999512	1468.593384	725.863281	0.517520
288.049561	723.708496	1459.082520	725.789063	0.282926
288.420898	724.600159	1445.708008	729.875671	0.731584
288.792145	725.714661	1431.813354	734.482422	1.241719
289.163452	725.268860	1439.689453	739.980774	2.059279
289.534668	724.005676	1458.933960	735.671204	1.587301
289.905914	731.807434	1497.497070	728.092285	-0.485203
290.277039	730.470032	1524.617554	728.538147	-0.243265
290.648193	727.275085	1567.267212	733.144958	0.698801
291.019318	723.931396	1603.675781	731.956055	0.912158
291.390381	724.823059	1622.845703	726.086182	0.140656
291.761475	731.584534	1625.372070	723.336975	-0.922765
292.132507	732.996399	1606.573364	726.680664	-0.722974
292.503510	726.457703	1592.604492	732.179016	0.660548
292.874481	727.052063	1575.737793	735.299744	0.971818
293.245422	719.844727	1582.053589	740.500916	2.395729
293.616364	719.324646	1606.647827	743.770203	2.754978
293.987213	713.083191	1643.724976	744.513245	3.377245
294.358093	717.689941	1684.962891	738.048889	2.104778
294.728943	724.228699	1731.848022	732.773438	0.848013
295.099731	726.531982	1778.807129	729.058289	0.240080
295.470490	727.646484	1814.398071	726.606262	-0.095718
295.841248	726.680603	1831.562134	726.086182	-0.053800
296.211975	727.497864	1847.537231	729.429871	0.172495
296.582642	731.807434	1883.351196	734.482422	0.232296
296.953308	724.822998	1932.688110	732.699158	0.652073
297.323883	720.885010	1981.281860	730.841553	0.789953
297.694519	716.129639	2010.185669	729.132629	1.004824
298.065063	721.479431	2014.866821	733.590759	0.936404
298.435608	728.389587	2000.229126	744.216064	1.244377
298.806122	725.194519	1953.790039	743.770264	1.511950
299.176575	720.959290	1911.065918	748.377014	2.303804
299.547028	708.699402	1871.239624	744.290344	3.061480
299.917450	714.494934	1845.308105	750.754700	3.206521
300.287872	721.553711	1829.927368	738.940613	1.568686
300.658234	731.584656	1815.289917	729.578430	-0.185126
301.028564	724.971680	1811.871704	726.457703	0.136721
301.398865	719.027405	1805.036011	733.590637	1.340987
301.769135	715.386536	1811.723267	740.723816	2.311086
302.139374	715.460938	1829.333008	741.541077	2.341394
302.509583	714.643555	1839.735352	743.398743	2.555808
302.879791	717.392761	1835.500122	738.940613	1.927172
303.249939	720.290527	1818.336304	731.584534	1.028555
303.620087	723.039795	1810.757324	739.163391	1.482333
303.990173	716.872620	1802.658203	740.649475	2.189830
304.360260	723.336975	1796.862671	745.627747	2.076408
304.730286	726.903503	1796.342407	733.070618	0.576668
305.100281	727.349365	1810.311401	735.076843	0.713550
305.470276	719.919128	1833.419556	731.956055	1.080999
305.840179	715.535156	1838.694946	730.470032	1.329720
306.210144	717.912903	1843.301758	725.566101	0.680049
306.579987	721.479492	1844.936523	728.612488	0.634915
306.949890	718.730286	1864.552368	728.761047	0.875421
307.319702	725.268860	1883.351074	731.510254	0.538942
307.689484	724.451477	1908.985718	726.977844	0.213279
308.059265	728.538147	1936.923462	732.104797	0.295158
308.429016	722.445313	1974.520508	731.584656	0.729936
308.798737	725.120178	2012.340698	744.290344	1.489268
309.168396	727.423584	2054.693359	746.296570	1.421940
309.538055	730.841553	2085.157471	742.358582	0.850395
309.907684	726.903503	2120.525391	733.442200	0.469187
310.277313	725.120300	2145.788330	732.401855	0.512544
310.646851	726.903503	2160.723145	737.677429	0.751414
311.016388	725.640381	2176.103760	738.940491	0.916956
311.385895	722.668213	2179.967529	743.175781	1.407231
311.755371	726.680664	2209.985840	743.695984	1.147122
312.124817	723.039795	2198.543213	741.541077	1.253896
312.494232	731.807556	2200.920654	735.225403	0.232647
312.863617	725.268860	2176.920898	736.934387	0.803604
313.232971	727.943787	2170.531006	734.333740	0.442951
313.602295	721.256531	2157.825439	737.454529	1.127548
313.971619	718.581604	2158.642578	735.002441	1.140288
314.340820	718.953125	2167.038818	738.271790	1.334083
314.710083	730.618652	2188.735352	733.516418	0.198733
315.079285	730.544250	2212.958008	729.801331	-0.050116
315.448486	737.751709	2256.350830	736.265625	-0.097859
315.817596	725.417480	2253.155518	734.408142	0.588495
316.186707	731.881775	2239.186768	737.008728	0.340140
316.555786	724.005676	2196.165283	727.943787	0.267506
316.924866	723.931396	2165.849854	734.482422	0.731735
317.293884	717.615723	2137.986328	738.420471	1.464741
317.662872	720.885010	2133.454102	743.101563	1.572776
318.031830	725.194580	2139.621338	741.689758	1.166209
318.400757	725.120300	2152.549805	740.798157	1.098328
318.769684	723.039795	2168.004639	734.705322	0.807323
319.138550	721.776672	2195.868164	735.076843	0.902262
319.507416	732.550537	2220.759766	734.259521	0.114835
319.876190	730.618652	2229.601807	736.414307	0.386639
320.244995	733.070618	2225.738037	735.968445	0.194137
320.613770	720.959290	2201.589600	729.727051	0.592164
320.982483	719.324646	2194.531006	730.321472	0.745443
321.351166	711.448547	2178.184326	729.652771	1.241139
321.719818	720.959290	2177.441406	736.339905	1.056011
322.088440	726.086182	2167.633057	734.110840	0.556670
322.457062	722.891174	2195.422607	735.596985	0.862855
322.825623	715.386536	2224.326416	732.773438	1.152259
323.194183	718.210144	2265.861572	736.265625	1.166638
323.562653	729.058289	2304.796143	733.367920	0.273499
323.931183	727.572266	2363.272461	734.631042	0.431545
324.299591	722.965515	2415.061279	739.683594	0.988010
324.668060	722.073914	2481.636475	738.569031	0.937456
325.036407	722.965515	2527.184326	733.144958	0.564202
