Jaz Data File
++++++++++++++++++++++++++++++++++++
Date: Fri Jun 04 17:04:33 2021
User: jaz
Dark Spectrum Present: Yes
Reference Spectrum Present: Yes
Processed Spectrum Present: Yes
Spectrometers: JAZA3586
Integration Time (usec): 122000 (JAZA3586)
Spectra Averaged: 10 (JAZA3586)
Boxcar Smoothing: 1 (JAZA3586)
Correct for Electrical Dark: No (JAZA3586)
Strobe/Lamp Enabled: Yes (JAZA3586)
Correct for Detector Non-linearity: No (JAZA3586)
Correct for Stray Light: No (JAZA3586)
Number of Pixels in Processed Spectrum: 2048
>>>>>Begin Processed Spectral Data<<<<<
W	D	R	S	P
191.335022	0.000000	0.000000	0.000000	0.000000
191.713211	230.487015	226.177490	224.022705	150.000534
192.091385	464.540619	461.122711	457.036041	219.566422
192.469528	699.262878	689.975098	689.454895	105.600937
192.847641	705.429993	700.228821	702.309265	60.000469
193.225739	712.637390	707.064697	717.987122	-95.999039
193.603790	720.067688	719.101746	728.686768	-892.297485
193.981842	730.247070	730.024231	740.278015	-4501.424316
194.359863	731.956055	737.157288	742.061340	194.286346
194.737854	743.324402	750.606140	748.822815	75.509621
195.115829	747.708252	749.045715	741.243958	-483.324982
195.493774	751.200500	747.485352	732.773438	495.997955
195.871704	747.262451	748.451355	732.327637	-1256.183594
196.249603	749.342957	748.897156	744.216064	1150.041016
196.627457	749.342957	748.599915	745.999329	449.991791
197.005310	751.051941	736.711487	743.398743	53.367893
197.383133	746.073547	736.488586	733.739319	128.683136
197.760910	752.835144	744.438965	736.191345	198.230621
198.138687	747.039551	751.572083	745.107666	-42.622643
198.516449	743.695862	751.274902	744.141785	5.883632
198.894180	736.042725	739.906555	741.392578	138.459839
199.271866	747.039551	737.677429	735.076843	127.777740
199.649536	740.575256	732.327637	737.677429	35.135315
200.027191	736.488586	738.049011	736.711487	14.284596
200.404816	724.154297	736.191406	728.315247	34.567680
200.782410	728.018066	753.726807	736.711487	33.815037
201.159988	731.807434	764.575012	745.033386	40.362923
201.537537	730.395752	777.132141	753.058105	48.489738
201.915070	730.172852	772.450989	742.655701	29.525541
202.292557	730.395752	769.999084	739.980774	24.202564
202.670029	734.036560	770.593506	735.374084	3.658742
203.047485	739.089111	774.828796	738.197510	-2.494710
203.424911	743.027161	773.862854	735.894104	-23.132467
203.802292	745.850769	771.782410	735.448303	-40.114956
204.179688	744.067383	772.079590	737.008728	-25.198496
204.557037	738.643372	773.268372	743.844543	15.021435
204.934357	734.631042	775.125977	743.918762	22.935511
205.311661	729.727051	779.138367	739.089172	18.947323
205.688934	724.377197	775.200256	733.739319	18.421011
206.066177	722.965515	764.872253	733.590759	25.354500
206.443390	727.126465	762.494446	736.637146	26.890654
206.820587	730.098572	770.519226	728.612488	-3.676546
207.197769	727.052063	775.868958	732.253357	10.654700
207.574921	730.990173	770.965027	730.990173	0.000000
207.952042	729.058289	761.602844	739.386414	31.735338
208.329147	729.355469	759.893860	745.999329	54.501431
208.706223	763.980530	802.617920	793.850281	77.307892
209.083267	763.089050	805.664368	799.348633	85.165733
209.460297	765.466614	806.630371	798.828552	81.046875
209.837280	723.337097	754.172607	755.064209	102.891479
210.214264	721.330872	751.497742	747.411072	86.453117
210.591217	715.163757	755.955872	742.135559	66.120140
210.968124	718.730225	770.147705	742.729980	46.676258
211.345016	724.525879	775.571777	747.708252	45.414761
211.721893	733.442200	771.039368	739.534973	16.205406
212.098724	733.070618	762.717468	732.996338	-0.250549
212.475555	735.968506	771.633789	731.881775	-11.458569
212.852356	737.528809	771.485168	733.813660	-10.940951
213.229126	738.048889	778.023743	743.027161	12.453507
213.605865	733.219238	765.169434	737.454529	13.255915
213.982590	727.720886	772.228210	735.225403	16.861307
214.359283	718.655945	767.918640	734.110840	31.372410
214.735931	723.262695	760.711243	729.206848	15.872853
215.112579	714.569275	755.064209	733.516418	46.788921
215.489197	721.033630	757.590576	725.714661	12.804763
215.865799	718.433044	761.974426	736.562805	41.638000
216.242355	727.200684	759.299500	734.259460	21.990770
216.618896	730.395752	755.732910	738.940491	33.724140
216.995407	730.470032	754.469788	731.287354	3.405542
217.371902	726.754883	761.677185	726.977844	0.638450
217.748367	720.513489	772.451111	720.067688	-0.858339
218.124802	722.965515	772.896973	719.473328	-6.993963
218.501236	726.606262	765.466614	724.971680	-4.206299
218.877609	729.949890	752.612244	722.891113	-31.147589
219.253983	726.680664	755.955872	726.977783	1.014917
219.630295	723.559875	760.042480	724.302917	2.036702
220.006592	720.959290	762.420227	732.030457	26.702644
220.382889	715.163635	757.739075	726.680664	27.050875
220.759140	715.758118	752.612305	726.531982	29.233761
221.135391	714.717957	753.652527	727.126404	31.869999
221.511581	715.089355	752.537903	727.869446	34.127064
221.887772	711.968750	755.807312	730.618652	42.542233
222.263931	716.278259	766.209656	729.504150	26.488125
222.640060	724.971680	773.565674	732.253357	14.984727
223.016159	730.990173	765.318054	732.847839	5.411537
223.392212	729.875671	756.921875	731.881836	7.417546
223.768265	723.559875	757.070496	729.652649	18.181620
224.144302	719.398926	765.763855	728.092346	18.749992
224.520294	717.169922	762.494568	727.869446	23.606415
224.896286	717.392761	766.878418	736.414307	38.438503
225.272217	722.668274	773.862793	743.695984	41.074142
225.648148	728.612488	779.658386	749.342957	40.611427
226.024048	729.801270	773.714172	746.147949	37.225231
226.399902	721.107910	764.500732	741.689758	47.431458
226.775772	712.265808	763.014648	734.110901	43.045502
227.151581	713.231750	759.819641	739.014893	55.343014
227.527374	710.333984	762.122986	740.055115	57.388885
227.903137	711.968689	767.175598	743.621582	57.335022
228.278870	711.151367	777.057861	739.237793	42.615566
228.654572	716.278259	776.834961	734.556702	30.184013
229.030273	716.724121	774.680176	734.482422	30.640976
229.405930	715.386536	767.398621	735.745605	39.142960
229.781555	717.095520	760.116882	739.832214	52.849777
230.157181	722.965515	755.732971	732.476257	29.024963
230.532761	722.668274	750.977539	726.606262	13.910599
230.908325	723.634094	763.460449	725.120300	3.731715
231.283859	719.398926	764.946533	729.132568	21.370260
231.659332	721.479431	769.479004	726.160461	9.752234
232.034821	719.176086	759.150940	726.754883	18.958910
232.410263	722.593933	756.030273	732.402039	29.333670
232.785690	722.668213	757.739075	737.900391	43.432571
233.161087	717.838623	762.123047	743.324463	57.550346
233.536469	713.231750	762.791748	737.083008	48.126026
233.911804	711.968567	762.717468	736.340027	48.023621
234.287140	725.045898	759.448059	730.618652	16.198849
234.662430	727.497864	758.630798	734.482361	22.434433
235.037704	727.126465	763.683350	742.878601	43.089382
235.412933	720.067627	763.014648	743.101501	53.633228
235.788162	717.615723	766.655457	741.243958	48.181816
236.163345	719.324646	762.123047	735.225403	37.152691
236.538513	721.925293	765.466614	734.036560	27.815571
236.913635	725.714661	763.683350	733.813660	21.330730
237.288742	723.931458	769.999023	735.596985	25.322647
237.663834	720.959290	775.348877	735.002502	25.819672
238.038879	712.711731	774.977356	736.860168	38.782936
238.413910	716.426819	764.723633	730.172913	28.461699
238.788910	718.135803	758.928040	737.677429	47.905258
239.163879	724.897400	759.076599	733.219238	24.347670
239.538834	718.061523	760.488342	740.946777	53.940536
239.913757	723.114075	772.525391	736.339905	26.766804
240.288651	726.531982	778.989746	746.370789	37.818626
240.663528	732.104736	784.265198	748.228455	30.911762
241.038361	726.383484	771.410828	742.655762	36.138657
241.413177	718.804504	769.701843	740.426575	42.481731
241.787979	721.850891	766.729736	731.213074	20.861015
242.162735	719.919006	772.748291	734.630920	27.848028
242.537476	718.804504	764.946472	728.761047	21.578064
242.912170	713.454773	771.113586	738.271790	43.041149
243.286865	715.237976	769.850403	739.906494	45.170155
243.661514	714.272034	777.577942	740.649597	41.666828
244.036148	720.141907	782.556213	732.773438	20.238197
244.410751	716.649719	785.231140	733.739441	24.918880
244.785339	720.810730	785.825684	738.420410	27.085585
245.159882	716.724060	775.794739	736.860107	34.088058
245.534378	717.615662	774.085754	741.689758	42.631588
245.908890	714.569275	765.838196	731.807556	33.623257
246.283356	713.380432	770.667908	733.516418	35.149021
246.657791	716.946960	766.432617	730.618652	27.627584
247.032196	718.878906	782.927795	737.454529	29.002256
247.406586	715.906738	777.057800	737.677429	35.601494
247.780960	718.061523	784.785339	734.333801	24.387510
248.155289	716.352539	772.228210	736.414246	35.904190
248.529602	715.163635	773.937195	739.163513	40.834480
248.903870	714.569275	770.073425	741.318176	48.192616
249.278122	713.603333	769.627625	730.247070	29.708073
249.652344	715.683838	769.330383	723.931458	15.374000
250.026550	721.033630	773.268494	721.330872	0.569048
250.400711	731.138855	779.064026	733.442200	4.806127
250.774857	733.070618	785.379700	733.367859	0.568240
251.148987	718.432922	782.779114	731.287415	19.977083
251.523071	713.751953	781.441650	727.275085	19.978125
251.897125	718.358704	778.989746	744.958984	43.872379
252.271164	725.120300	772.451111	747.782532	47.880505
252.645187	720.439148	767.621399	756.178772	75.748024
253.019165	709.368103	763.088928	739.386414	55.878349
253.393112	710.111084	777.132141	743.250183	49.445801
253.767044	714.494934	787.608887	733.590759	26.117895
254.140930	716.129578	795.039124	741.095398	31.638531
254.514801	715.089355	792.512756	743.472961	36.660240
254.888657	715.683777	782.927795	741.763977	38.784416
255.262466	727.869446	778.321045	731.510254	7.216437
255.636276	731.956116	777.726563	733.739441	3.896237
256.010010	735.299744	776.834961	738.420410	7.513302
256.383759	732.401855	776.834961	744.438965	27.090408
256.757446	729.132568	776.612000	736.042725	14.554000
257.131134	722.891113	785.454041	738.271790	24.584330
257.504791	720.810730	780.104248	737.603027	28.320629
257.878418	715.609558	773.416992	731.733154	27.891909
258.252014	720.884949	769.999084	729.949951	18.457012
258.625580	722.668274	783.893738	734.333801	19.053392
258.999115	729.132629	794.296082	736.785828	11.744617
259.372650	721.850891	804.401306	727.720886	7.110800
259.746124	716.278259	798.308411	721.776672	6.702917
260.119598	715.460938	806.927551	728.612488	14.378526
260.493042	721.925232	803.955383	736.637207	17.934839
260.866425	725.640320	810.865540	738.197571	14.734196
261.239838	724.005676	805.590088	731.956116	9.745048
261.613159	722.519714	808.562195	728.092346	6.476605
261.986511	722.742615	802.469421	731.138733	10.531111
262.359802	721.999512	790.878113	734.482422	18.123060
262.733063	721.405090	777.206482	739.089172	31.691113
263.106293	714.494934	778.246643	738.346191	37.412735
263.479523	716.649719	788.723328	742.432800	35.773262
263.852692	715.237976	794.296082	739.980774	31.296978
264.225861	715.163635	787.311584	735.448303	28.115377
264.598969	716.278137	779.955627	726.754883	16.452824
264.972076	709.293762	782.556213	727.720886	25.152208
265.345154	710.408386	798.085510	735.002502	28.050779
265.718201	712.563049	803.063782	738.940613	29.146244
266.091217	728.018066	812.500244	750.606140	26.737087
266.464203	736.711487	818.815979	752.315125	19.004608
266.837158	738.940613	817.404297	755.361389	20.927868
267.210114	728.835388	811.905823	742.952942	16.994678
267.583038	727.275085	802.246521	739.386414	16.154591
267.955902	718.433044	812.946045	734.333801	16.823883
268.328766	718.581604	820.153503	740.055115	21.141193
268.701569	711.002747	818.593079	733.442200	20.856384
269.074371	717.095520	810.642761	739.534973	23.987295
269.447144	718.804504	811.237061	736.562927	19.212303
269.819885	719.844727	814.580750	736.191406	17.254978
270.192596	719.027405	823.719910	729.801331	10.291019
270.565277	719.547546	835.831238	729.578430	8.626217
270.937927	722.816833	840.512390	728.463867	4.798001
271.310577	718.507324	838.803467	727.275085	7.288481
271.683136	713.900574	832.339111	727.126465	11.166882
272.055725	712.934570	836.648682	726.606262	11.051037
272.428284	712.414551	837.317383	725.120300	10.172507
272.800812	721.628113	837.317383	723.411316	1.541373
273.173279	725.268860	842.369934	737.083008	10.088847
273.545776	732.773438	850.394714	739.312073	5.559058
273.918152	732.476257	854.109802	738.569092	5.009173
274.290558	729.652649	848.834290	725.937561	-3.117165
274.662964	729.206848	849.502991	732.922058	3.088387
275.035278	716.872620	849.354431	732.699036	11.946105
275.407593	718.804504	855.224365	744.216064	18.627464
275.779907	714.272034	855.298645	745.404846	22.075842
276.152161	721.330750	860.202637	748.302734	19.422207
276.524384	721.256531	861.242859	743.175781	15.658136
276.896606	718.284363	859.905334	741.838379	16.631729
277.268799	717.467102	863.546204	741.020996	16.124067
277.640930	711.225647	860.351135	735.448425	16.243217
278.013031	717.690125	862.134460	736.042786	12.705698
278.385162	719.919128	863.471985	734.408020	10.093071
278.757233	721.851013	868.747375	733.887939	8.194162
279.129272	720.364929	873.502747	725.491760	3.347854
279.501282	718.135742	867.038513	726.086182	5.339350
279.873230	719.696106	866.295593	734.853821	10.339541
280.245178	719.770508	872.091064	745.256165	16.731594
280.617126	720.587830	878.629700	747.411072	16.972239
280.988983	720.736389	893.490234	744.438965	13.720433
281.360870	723.559875	906.418884	741.318298	9.711538
281.732697	721.479309	909.391052	734.705322	7.038418
282.104492	723.411316	910.282654	736.042786	6.759448
282.476288	727.720886	907.533447	732.624817	2.727246
282.848053	730.470032	919.198975	734.408142	2.086649
283.219757	730.247131	917.341370	728.835266	-0.754628
283.591461	724.302917	922.022461	731.213074	3.494928
283.963135	720.736389	911.991516	735.968445	7.964260
284.334747	722.742615	922.988464	743.547180	10.389511
284.706360	712.860352	934.505371	743.101501	13.643956
285.077942	721.553711	951.074890	744.513184	10.003204
285.449524	714.569275	948.028503	741.763977	11.648587
285.821014	715.683777	947.656982	734.036621	7.911623
286.192535	714.940735	953.526855	728.686768	5.761456
286.563995	713.380432	965.192383	733.813660	8.114479
286.935425	714.494934	965.043762	741.466797	10.765112
287.306824	709.888184	965.117981	745.033386	13.770023
287.678223	710.705566	962.591736	736.860046	10.383452
288.049561	718.581604	964.523621	736.414246	7.250751
288.420898	720.662109	968.758789	735.745605	6.079685
288.792145	726.680664	973.365540	744.364685	7.168669
289.163452	722.816895	974.182922	745.627869	9.074804
289.534668	723.857117	977.600891	749.194336	9.985356
289.905914	717.987122	984.956848	745.404968	10.270020
290.277039	717.764343	997.811218	748.154053	10.851651
290.648193	722.148193	1011.260010	743.621643	7.427386
291.019318	729.727051	1023.742859	739.906494	3.462209
291.390381	732.253357	1021.736633	734.631042	0.821355
291.761475	727.497986	1015.941101	740.649597	4.559516
292.132507	725.714600	1013.711975	744.736145	6.604764
292.503510	723.559875	1017.129944	748.971436	8.656046
292.874481	733.962219	1020.993713	754.246887	7.067053
293.245422	733.516418	1020.547913	755.361511	7.610695
293.616364	734.408142	1026.120483	750.383118	5.476277
293.987213	719.250305	1029.835693	735.968445	5.382784
294.358093	715.832458	1049.748779	729.875671	4.205608
294.728943	709.888184	1070.182007	729.206848	5.361919
295.099731	711.448547	1094.033203	722.668274	2.932613
295.470490	715.089355	1101.240723	728.315247	3.425054
295.841248	720.959290	1111.345825	729.949951	2.303015
296.211975	716.575439	1125.389038	744.513245	6.833874
296.582642	713.900574	1131.779053	742.432861	6.827891
296.953308	716.575439	1146.862427	743.770264	6.320159
297.323883	719.176025	1147.382690	742.432800	5.431203
297.694519	716.649719	1166.181274	744.216003	6.132225
298.065063	711.597168	1170.639404	747.633972	7.850433
298.435608	715.683777	1169.450562	746.668030	6.828233
298.806122	714.569275	1152.063599	743.695984	6.657620
299.176575	716.278137	1129.327026	741.912781	6.206201
299.547028	709.442383	1123.531494	735.968445	6.405882
299.917450	708.327820	1130.664551	731.436035	5.471515
300.287872	705.058411	1136.311523	726.829285	5.048282
300.658234	711.894348	1133.933960	732.624817	4.911972
301.028564	713.454773	1128.732544	741.466980	6.745415
301.398865	720.141907	1118.776001	736.191406	4.026123
301.769135	721.405090	1120.484985	732.104736	2.681079
302.139374	727.126404	1119.147583	731.138733	1.023498
302.509583	728.983948	1130.515869	733.739319	1.184307
302.879791	727.572266	1142.032837	737.454529	2.384367
303.249939	731.436035	1147.679810	731.138733	-0.071425
303.620087	722.371094	1145.450806	738.123230	3.723208
303.990173	721.850891	1131.704712	739.386292	4.278452
304.360260	717.021240	1141.364136	745.181946	6.636309
304.730286	722.296692	1152.286621	743.770203	4.993957
305.100281	726.531982	1157.116333	738.346130	2.743748
305.470276	729.281189	1153.624023	731.807434	0.595331
305.840179	733.293518	1157.859253	729.132629	-0.980034
306.210144	727.943787	1163.506348	726.086182	-0.426484
306.579987	733.590759	1178.441284	731.510254	-0.467686
306.949890	733.070618	1179.109985	737.454529	0.982853
307.319702	735.894226	1200.286133	746.445129	2.271983
307.689484	729.652771	1199.543091	743.993164	3.051860
308.059265	731.213074	1214.329224	746.073669	3.075988
308.429016	730.172852	1223.171265	743.844543	2.773172
308.798737	728.315247	1238.477661	741.615417	2.607046
309.168396	722.593933	1257.053345	737.900391	2.863914
309.538055	726.011902	1273.994507	733.070618	1.288128
309.907684	725.937561	1290.266724	740.575195	2.593812
310.277313	719.844727	1300.297485	745.479187	4.416287
310.646851	711.374207	1314.340698	752.983826	6.900818
311.016388	709.516663	1327.418091	754.321228	7.251086
311.385895	717.764343	1336.111450	751.572083	5.467437
311.755371	716.575439	1333.436646	747.188171	4.962661
312.124817	712.860291	1330.167358	736.414246	3.815598
312.494232	712.563049	1334.328247	737.454529	4.003357
312.863617	719.027344	1329.795776	741.243958	3.637486
313.232971	727.720764	1324.000244	743.993164	2.728989
313.602295	725.491760	1318.947632	738.123230	2.128460
313.971619	729.875671	1328.235352	733.367859	0.583627
314.340820	730.767273	1338.860718	739.683594	1.466275
314.710083	739.460693	1354.092651	740.203674	0.120882
315.079285	727.943665	1370.959473	743.027161	2.345743
315.448486	730.098572	1393.918945	744.216003	2.126694
315.817596	719.696106	1393.919067	751.571960	4.727791
316.186707	721.107910	1373.560181	745.999268	3.815047
316.555786	713.083191	1353.498413	735.596985	3.515500
316.924866	712.042969	1334.402466	728.984070	2.722076
317.293884	721.405090	1337.523071	732.624817	1.821035
317.662872	726.086182	1336.037231	743.250061	2.813977
318.031830	722.073792	1354.464355	736.042725	2.208909
318.400757	719.919128	1366.575684	737.974609	2.792128
318.769684	716.203918	1378.538452	731.584656	2.322201
319.138550	723.559875	1372.742798	728.315247	0.732516
319.507416	713.380432	1379.875854	725.863281	1.872908
319.876190	706.916016	1375.714844	725.268860	2.744150
320.244995	711.076965	1395.479492	743.027161	4.668334
320.613770	722.445313	1386.563110	743.398743	3.155077
320.982483	726.977844	1387.083130	745.181946	2.757757
321.351166	716.278259	1376.160767	737.083008	3.152796
321.719818	709.070801	1377.498169	740.649475	4.724324
322.088440	707.882019	1390.501099	743.993164	5.290087
322.457062	715.980957	1405.733276	740.055115	3.490261
322.825623	721.107910	1423.194336	735.819824	2.095456
323.194183	733.665039	1440.135376	728.018066	-0.799322
323.562653	735.225403	1464.432251	732.253235	-0.407589
323.931183	732.922058	1502.847046	736.785828	0.501837
324.299591	718.507324	1541.335815	741.466858	2.790318
324.668060	715.312317	1560.505859	742.432800	3.208790
325.036407	716.203918	1577.818359	748.302734	3.725427
325.404755	723.337097	1577.446655	749.788757	3.096987
