Jaz Data File
++++++++++++++++++++++++++++++++++++
Date: Fri Jun 04 16:53:14 2021
User: jaz
Dark Spectrum Present: Yes
Reference Spectrum Present: Yes
Processed Spectrum Present: Yes
Spectrometers: JAZA3586
Integration Time (usec): 24600 (JAZA3586)
Spectra Averaged: 10 (JAZA3586)
Boxcar Smoothing: 1 (JAZA3586)
Correct for Electrical Dark: No (JAZA3586)
Strobe/Lamp Enabled: Yes (JAZA3586)
Correct for Detector Non-linearity: No (JAZA3586)
Correct for Stray Light: No (JAZA3586)
Number of Pixels in Processed Spectrum: 2048
>>>>>Begin Processed Spectral Data<<<<<
W	D	R	S	P
191.335022	0.000000	0.000000	0.000000	0.000000
191.713211	227.812149	233.756348	234.276474	108.750153
192.091385	455.401367	470.633423	469.964691	95.609711
192.469528	695.027649	713.083191	703.795410	48.559944
192.847641	705.281433	715.386536	710.185486	48.530460
193.225739	723.634216	724.748718	712.414551	-1006.697693
193.603790	731.584534	727.275085	719.398926	282.764923
193.981842	739.757813	742.507080	726.309082	-489.175018
194.359863	740.649475	740.798096	738.346130	-1549.815186
194.737854	744.141785	746.890930	743.398743	-27.028107
195.115829	742.284241	741.243958	741.243958	100.000000
195.493774	742.655762	746.445129	743.473083	21.568817
195.871704	739.609314	740.055176	747.113831	1683.148560
196.249603	745.256348	746.222229	749.714417	461.554504
196.627457	745.702148	748.674133	743.695984	-67.502518
197.005310	744.439026	752.835144	736.117004	-99.117485
197.383133	741.689758	753.875427	747.411072	46.951164
197.760910	735.076843	761.602844	750.828918	59.383530
198.138687	738.049011	765.838196	758.184998	72.459793
198.516449	736.191345	752.983826	744.141785	47.345234
198.894180	749.788757	743.398743	742.432800	115.116432
199.271866	750.085999	743.472961	740.203674	149.436996
199.649536	751.274902	751.497742	741.243958	-4501.424316
200.027191	749.342957	753.132385	738.271790	-292.159271
200.404816	752.760925	750.457520	737.083008	680.640686
200.782410	750.308899	760.265381	737.900330	-124.628052
201.159988	742.952881	773.119812	736.785828	-20.443090
201.537537	735.671204	777.206482	738.420471	6.619114
201.915070	735.151184	784.116699	736.562927	2.883137
202.292557	731.064453	777.578064	739.460693	18.051147
202.670029	735.522644	780.772949	741.987000	14.285772
203.047485	736.042786	774.234375	745.627747	25.097046
203.424911	739.832214	775.571777	748.897156	25.363884
203.802292	732.030457	776.686340	744.959045	28.951591
204.179688	728.686768	769.924805	742.284180	32.972984
204.557037	725.566101	758.184998	739.757874	43.507824
204.934357	724.451477	759.225281	742.135559	50.854610
205.311661	722.816895	760.116882	740.129395	46.414223
205.688934	724.377258	763.163269	742.135559	45.785324
206.066177	725.120300	758.036377	742.135559	51.692852
206.443390	730.544434	759.002258	738.048828	26.370232
206.820587	728.761169	761.825745	732.847656	12.359109
207.197769	722.965515	764.203430	726.011902	7.387344
207.574921	721.553711	757.813477	732.699158	30.737780
207.952042	718.210144	756.847473	735.225403	44.038391
208.329147	721.330811	761.602844	736.265625	37.084827
208.706223	727.126465	778.543884	743.770264	32.369961
209.083267	733.813721	777.875183	739.237793	12.310241
209.460297	745.404968	764.426453	738.866272	-34.375320
209.837280	734.853943	752.686523	727.126465	-43.333481
210.214264	733.219238	755.510071	727.349365	-26.333126
210.591217	719.547546	763.460449	726.532043	15.905341
210.968124	720.513489	763.831970	733.962219	31.046173
211.345016	714.123474	763.906250	732.476257	36.865730
211.721893	713.677551	762.123047	731.361633	36.503048
212.098724	713.528992	764.723633	720.364929	13.352838
212.475555	717.764221	758.482239	729.355469	28.467121
212.852356	718.507324	753.875427	733.962341	43.697613
213.229126	714.420593	755.435730	742.432800	68.297241
213.605865	713.900574	759.076599	740.352356	58.552700
213.982590	721.553711	764.352051	736.488586	34.895924
214.359283	731.733215	758.630676	729.578430	-8.011110
214.735931	737.900330	759.002258	729.801331	-38.380375
215.112579	735.299744	759.448059	734.928223	-1.538496
215.489197	728.909668	757.664856	738.643372	33.850250
215.865799	715.906738	747.559631	731.956055	50.704105
216.242355	709.516663	740.129395	725.417480	51.941845
216.618896	705.950134	738.866211	726.977844	63.882797
216.995407	700.154541	745.776367	729.875671	65.146736
217.371902	698.594238	745.479187	735.374084	78.447021
217.748367	703.200989	746.445129	732.030457	66.666763
218.124802	713.008850	748.302734	737.305908	68.842117
218.501236	716.426819	754.915588	738.866272	58.301300
218.877609	716.724060	761.825745	738.271790	47.775887
219.253983	721.553711	768.141541	730.841553	19.936197
219.630295	725.863220	773.416992	725.566101	-0.624807
220.006592	727.423584	768.810242	726.234863	-2.872232
220.382889	724.897278	761.231445	730.692932	15.950976
220.759140	723.634094	762.048767	737.900391	37.137623
221.135391	721.999512	764.946533	741.615417	45.674660
221.511581	719.250305	757.962097	738.420410	49.520065
221.887772	714.792175	749.342957	730.841614	46.451736
222.263931	707.287598	745.404846	723.931458	43.664906
222.640060	707.436218	755.881592	723.708496	33.588921
223.016159	711.968689	757.219055	723.485596	25.451521
223.392212	718.953125	762.866028	724.154297	11.844291
223.768265	726.829163	756.030212	725.863281	-3.307694
224.144302	725.714661	758.853699	728.612488	8.744452
224.520294	732.104675	760.191162	731.064453	-3.703639
224.896286	724.080078	766.061035	730.321472	14.867203
225.272217	725.417480	767.101318	730.692871	12.655722
225.648148	720.513489	765.020813	733.144958	28.380653
226.024048	723.931396	771.633789	732.624817	18.224285
226.399902	724.005676	766.358215	736.860046	30.350883
226.775772	721.033630	769.033203	734.928223	28.947325
227.151581	722.965515	763.534729	730.767273	19.230734
227.527374	724.674500	762.717468	727.943787	8.593670
227.903137	724.302979	759.745361	725.194580	2.515637
228.278870	721.776672	766.135437	725.640320	8.709998
228.654572	716.946960	772.153992	724.674316	13.997050
229.030273	719.027405	773.119812	719.175964	0.274640
229.405930	718.730164	768.215820	720.216248	3.003060
229.781555	712.637390	773.045471	722.816895	16.851229
230.157181	708.699402	778.469666	727.646545	27.156473
230.532761	705.429993	778.618164	731.361755	35.431629
230.908325	713.900574	770.073425	727.126465	23.544989
231.283859	718.284424	765.763855	731.287415	27.386576
231.659332	720.885010	767.398499	730.618652	20.926495
232.034821	718.432922	766.283997	728.909668	21.894484
232.410263	717.095520	760.042664	732.253357	35.294167
232.785690	724.377197	762.791809	737.157227	33.268665
233.161087	725.789001	770.965088	738.271790	27.631407
233.536469	723.411316	775.125977	742.432800	36.781609
233.911804	717.318420	764.054871	740.575195	49.761536
234.287140	717.764343	755.658691	734.556641	44.313461
234.662430	718.655945	761.602844	721.999512	7.785351
235.037704	714.346375	766.729797	721.256531	13.191494
235.412933	710.779785	777.206543	728.463867	26.621925
235.788162	711.299988	767.101318	734.110840	40.878689
236.163345	718.581726	767.621399	733.442139	30.302837
236.538513	722.371094	756.773193	733.070618	31.101370
236.913635	728.463867	759.448059	729.875671	4.556530
237.288742	724.674500	762.717468	731.733215	18.554586
237.663834	728.612549	767.844299	734.333801	14.583220
238.038879	728.389648	769.627625	735.076843	16.216108
238.413910	733.219238	771.633789	732.030457	-3.094613
238.788910	730.247070	770.370605	733.219238	7.407543
239.163879	721.925232	776.834961	738.791931	30.717142
239.538834	719.919006	779.658508	739.683594	33.084621
239.913757	715.386536	777.578064	735.002502	31.541220
240.288651	724.005676	777.503662	735.968445	22.361156
240.663528	716.946960	767.472839	733.293518	32.352840
241.038361	717.318420	772.674011	729.578430	22.147736
241.413177	712.117188	772.674011	718.655945	10.797722
241.787979	715.460876	777.652344	720.810730	8.602231
242.162735	724.748718	775.868958	730.470032	11.191875
242.537476	723.485596	767.324219	739.757874	37.118587
242.912170	726.903564	772.674011	738.420410	25.162188
243.286865	717.615723	778.618225	733.590820	26.187611
243.661514	722.222473	795.039063	726.011902	5.204073
244.036148	727.275085	798.308411	724.897400	-3.347282
244.410751	724.971680	802.320801	724.600098	-0.480396
244.785339	716.798340	791.323975	729.727051	17.348005
245.159882	710.705505	785.676941	728.092346	23.191288
245.534378	718.433044	780.624329	728.018066	15.412163
245.908890	725.417480	791.769836	720.439148	-7.502872
246.283356	724.748718	791.769836	725.194580	0.665256
246.657791	712.860291	796.227966	722.296814	11.319163
247.032196	712.042969	794.518982	732.773438	25.135149
247.406586	710.556946	803.955383	727.349304	17.979271
247.780960	717.987244	811.088562	726.234802	8.858691
248.155289	720.810730	816.661194	724.451477	3.798362
248.529602	720.885071	813.020447	723.708496	3.064431
248.903870	724.600159	798.605652	722.296692	-3.112562
249.278122	727.572205	786.494324	722.891113	-7.944540
249.652344	734.185120	787.831787	728.315247	-10.941730
250.026550	732.624756	794.890442	728.018066	-7.398440
250.400711	728.463867	803.435364	729.206848	0.991018
250.774857	722.668274	797.788330	730.470032	10.385719
251.148987	726.754883	800.240295	730.767273	5.460118
251.523071	720.513489	798.382813	725.417480	6.297719
251.897125	717.541321	803.732605	729.429871	13.793216
252.271164	715.460938	803.658203	730.098572	16.596472
252.645187	718.358704	800.834717	731.213074	15.585587
253.019165	718.878845	801.800598	722.816895	4.749115
253.393112	715.386536	806.184509	727.497986	13.338900
253.767044	712.265869	811.014160	724.228577	12.114344
254.140930	713.231750	811.905762	726.457764	13.403746
254.514801	708.699402	804.475586	728.686829	20.868891
254.888657	707.436218	806.481750	733.739441	26.556698
255.262466	707.584778	808.190674	729.206848	21.491852
255.636276	714.569336	814.209167	731.658875	17.151312
256.010010	725.045959	819.707520	733.219238	8.634211
256.383759	726.977783	818.147278	735.299744	9.128010
256.757446	725.268860	815.695251	725.789001	0.575210
257.131134	726.457703	807.967834	730.321472	4.740232
257.504791	732.922058	807.744873	741.541199	11.519402
257.878418	729.727051	818.221619	745.404968	17.716248
258.252014	721.033630	830.630127	739.163391	16.542282
258.625580	713.083191	857.527771	738.940613	17.901276
258.999115	723.336975	870.010559	741.318298	12.259415
259.372650	727.572266	890.369446	742.284180	9.036959
259.746124	730.915833	907.979309	736.860107	3.357143
260.119598	730.172852	925.589050	741.764099	5.931570
260.493042	724.674377	937.700378	738.940613	6.696946
260.866425	719.547546	929.527039	738.271790	8.917177
261.239838	716.798340	920.462097	729.652771	6.311595
261.613159	716.575439	903.892578	727.126465	5.632707
261.986511	723.782776	898.617004	732.476257	4.972414
262.359802	720.587830	898.171204	735.968506	8.661101
262.733063	726.457703	888.586243	733.739441	4.491336
263.106293	723.336975	890.815369	725.194580	1.109161
263.479523	724.080078	880.413025	720.587830	-2.233853
263.852692	720.216309	882.121887	721.850891	1.009590
264.225861	717.021301	872.165344	720.513489	2.250932
264.598969	716.798340	875.731934	725.194519	5.282822
264.972076	717.318420	881.378906	727.943665	6.476419
265.345154	720.884949	885.539795	730.024231	5.550570
265.718201	720.290527	884.425293	724.897278	2.806688
266.091217	722.296692	894.679016	725.268860	1.724172
266.464203	723.782898	904.189880	723.559875	-0.123622
266.837158	725.640381	917.192871	730.470032	2.521320
267.210114	720.662109	921.502380	745.702148	12.467639
267.583038	718.730164	932.944885	749.491516	14.360055
267.955902	725.789001	940.672424	747.708313	10.200560
268.328766	732.030457	944.313293	744.661865	5.950273
268.701569	735.448303	944.536133	745.627747	4.868501
269.074371	728.389587	953.898254	741.392578	5.766071
269.447144	730.098450	965.192383	736.414246	2.686499
269.819885	727.126465	967.793030	731.361633	1.759766
270.192596	719.844727	974.926086	728.538086	3.408073
270.565277	716.501160	986.888855	726.977844	3.874690
270.937927	712.488770	1007.470642	728.018066	5.264492
271.310577	719.919128	1027.829590	734.333801	4.681449
271.683136	716.129639	1046.999634	728.389648	3.705386
272.055725	719.324707	1070.330688	730.098450	3.069390
272.428284	714.866455	1080.287476	732.104736	4.717375
272.800812	714.272034	1081.104614	735.894104	5.894261
273.173279	706.841797	1075.829224	736.340027	7.994373
273.545776	706.990417	1074.714478	731.881775	6.769032
273.918152	706.544617	1070.925049	729.206848	6.219388
274.290558	719.324646	1062.974609	727.497986	2.378391
274.662964	722.668274	1060.076904	737.305908	4.338251
275.035278	724.674500	1062.231812	739.163513	4.292312
275.407593	720.736389	1069.587524	743.844543	6.624073
275.779907	722.519714	1082.070557	737.677429	4.215736
276.152161	725.714661	1096.633911	732.550537	1.842955
276.524384	719.547546	1100.348999	730.470032	2.868289
276.896606	716.278259	1099.308716	733.144958	4.403488
277.268799	713.008850	1101.612183	738.197510	6.481843
277.640930	718.730225	1120.262085	735.299744	4.126576
278.013031	721.405090	1126.280640	734.259460	3.174894
278.385162	727.423645	1124.051636	733.442200	1.517431
278.757233	720.290527	1112.088867	739.609314	4.930799
279.129272	720.885010	1121.451050	737.380188	4.117967
279.501282	714.940735	1126.503540	736.117004	5.145331
279.873230	721.405090	1142.181396	729.429871	1.907137
280.245178	721.627991	1153.772705	729.949890	1.925721
280.617126	732.922058	1182.527832	731.658875	-0.280954
280.988983	735.819824	1211.357300	729.949890	-1.234379
281.360870	737.083008	1240.558228	732.624817	-0.885484
281.732697	730.024231	1264.335083	722.742493	-1.362828
282.104492	731.881836	1286.031372	732.401855	0.093841
282.476288	725.120300	1307.802124	729.132629	0.688597
282.848053	727.572266	1337.597534	739.460693	1.948842
283.219757	718.358704	1344.433350	732.847717	2.314263
283.591461	728.240967	1338.712036	733.665039	0.888506
283.963135	723.857117	1319.319092	742.209778	3.082088
284.334747	733.442200	1323.703003	749.194336	2.668674
284.706360	726.234802	1343.616211	748.822754	3.658670
285.077942	718.655823	1375.789185	743.324402	3.753968
285.449524	711.968689	1407.739380	742.878601	4.442543
285.821014	713.380432	1428.395508	741.169678	3.886526
286.192535	727.349365	1448.234375	739.460693	1.680064
286.563995	730.024231	1464.655273	732.253357	0.303435
286.935425	731.584534	1477.732544	737.454529	0.786707
287.306824	727.423645	1477.583984	728.909668	0.198094
287.678223	721.999512	1468.593384	729.355469	0.985269
288.049561	723.708496	1459.082520	723.708496	0.000000
288.420898	724.600159	1445.708008	728.538147	0.546103
288.792145	725.714661	1431.813354	723.336975	-0.336736
289.163452	725.268860	1439.689453	733.887939	1.206443
289.534668	724.005676	1458.933960	738.643311	1.991709
289.905914	731.807434	1497.497070	749.194336	2.270751
290.277039	730.470032	1524.617554	744.438965	1.758985
290.648193	727.275085	1567.267212	747.039551	2.352935
291.019318	723.931396	1603.675781	742.655762	2.128387
291.390381	724.823059	1622.845703	734.705261	1.100440
291.761475	731.584534	1625.372070	728.538086	-0.340847
292.132507	732.996399	1606.573364	730.767273	-0.255172
292.503510	726.457703	1592.604492	728.315247	0.214461
292.874481	727.052063	1575.737793	730.470032	0.402737
293.245422	719.844727	1582.053589	731.213074	1.318514
293.616364	719.324646	1606.647827	736.711487	1.959471
293.987213	713.083191	1643.724976	740.426575	2.938121
294.358093	717.689941	1684.962891	743.175781	2.634814
294.728943	724.228699	1731.848022	748.079834	2.367078
295.099731	726.531982	1778.807129	746.147949	1.864148
295.470490	727.646484	1814.398071	737.900391	0.943537
295.841248	726.680603	1831.562134	732.699158	0.544724
296.211975	727.497864	1847.537231	732.624817	0.457748
296.582642	731.807434	1883.351196	737.305908	0.477487
296.953308	724.822998	1932.688110	735.894226	0.916595
297.323883	720.885010	1981.281860	730.470032	0.760477
297.694519	716.129639	2010.185669	730.321472	1.096694
298.065063	721.479431	2014.866821	730.098572	0.666400
298.435608	728.389587	2000.229126	733.590759	0.408949
298.806122	725.194519	1953.790039	724.748718	-0.036285
299.176575	720.959290	1911.065918	731.361633	0.874068
299.547028	708.699402	1871.239624	731.510254	1.962156
299.917450	714.494934	1845.308105	740.649414	2.312891
300.287872	721.553711	1829.927368	738.420410	1.521752
300.658234	731.584656	1815.289917	740.798157	0.850185
301.028564	724.971680	1811.871704	735.076843	0.929723
301.398865	719.027405	1805.036011	730.767273	1.081011
301.769135	715.386536	1811.723267	724.823059	0.860732
302.139374	715.460938	1829.333008	734.110901	1.674336
302.509583	714.643555	1839.735352	740.723877	2.318062
302.879791	717.392761	1835.500122	739.163574	1.947113
303.249939	720.290527	1818.336304	733.813721	1.231569
303.620087	723.039795	1810.757324	732.030457	0.826562
303.990173	716.872620	1802.658203	738.791931	2.018751
304.360260	723.336975	1796.862671	738.420410	1.405037
304.730286	726.903503	1796.342407	734.631042	0.722579
305.100281	727.349365	1810.311401	733.144958	0.535161
305.470276	719.919128	1833.419556	735.968445	1.441339
305.840179	715.535156	1838.694946	740.946716	2.262506
306.210144	717.912903	1843.301758	732.699158	1.313880
306.579987	721.479492	1844.936523	730.841614	0.833332
306.949890	718.730286	1864.552368	728.018066	0.810578
307.319702	725.268860	1883.351074	739.460693	1.225460
307.689484	724.451477	1908.985718	743.621582	1.618367
308.059265	728.538147	1936.923462	741.466858	1.069916
308.429016	722.445313	1974.520508	741.912659	1.554806
308.798737	725.120178	2012.340698	734.482422	0.727322
309.168396	727.423584	2054.693359	731.510254	0.307900
309.538055	730.841553	2085.157471	722.073792	-0.647394
309.907684	726.903503	2120.525391	727.646484	0.053313
310.277313	725.120300	2145.788330	737.305908	0.857738
310.646851	726.903503	2160.723145	741.020996	0.984607
311.016388	725.640381	2176.103760	741.987000	1.126993
311.385895	722.668213	2179.967529	741.541199	1.295066
311.755371	726.680664	2209.985840	745.033386	1.237286
312.124817	723.039795	2198.543213	741.095398	1.223691
312.494232	731.807556	2200.920654	740.723816	0.606914
312.863617	725.268860	2176.920898	736.414246	0.767772
313.232971	727.943787	2170.531006	735.002502	0.489309
313.602295	721.256531	2157.825439	733.219238	0.832728
313.971619	718.581604	2158.642578	738.197510	1.362158
314.340820	718.953125	2167.038818	740.426575	1.482885
314.710083	730.618652	2188.735352	740.798096	0.698123
315.079285	730.544250	2212.958008	742.209900	0.786936
315.448486	737.751709	2256.350830	744.438965	0.440357
315.817596	725.417480	2253.155518	745.924988	1.342345
316.186707	731.881775	2239.186768	738.791931	0.458444
316.555786	724.005676	2196.165283	738.123230	0.958969
316.924866	723.931396	2165.849854	737.751709	0.958467
317.293884	717.615723	2137.986328	741.763977	1.700138
317.662872	720.885010	2133.454102	736.860046	1.130921
318.031830	725.194580	2139.621338	742.284180	1.208235
318.400757	725.120300	2152.549805	745.999329	1.462701
318.769684	723.039795	2168.004639	752.092102	2.010589
319.138550	721.776672	2195.868164	744.661926	1.552499
319.507416	732.550537	2220.759766	737.751709	0.349492
319.876190	730.618652	2229.601807	734.036560	0.228015
320.244995	733.070618	2225.738037	728.315247	-0.318582
320.613770	720.959290	2201.589600	728.538147	0.511867
320.982483	719.324646	2194.531006	728.240967	0.604412
321.351166	711.448547	2178.184326	727.423645	1.089160
321.719818	720.959290	2177.441406	734.482422	0.928479
322.088440	726.086182	2167.633057	734.779602	0.603062
322.457062	722.891174	2195.422607	738.271912	1.044510
322.825623	715.386536	2224.326416	738.940613	1.560969
323.194183	718.210144	2265.861572	735.151123	1.094625
323.562653	729.058289	2304.796143	740.575195	0.730890
323.931183	727.572266	2363.272461	735.745605	0.499684
324.299591	722.965515	2415.061279	738.123230	0.895795
324.668060	722.073914	2481.636475	742.655701	1.169711
325.036407	722.965515	2527.184326	735.151123	0.675395
325.404755	719.398926	2564.187012	734.036621	0.793462
