Jaz Data File
++++++++++++++++++++++++++++++++++++
Date: Fri Jun 04 16:59:54 2021
User: jaz
Dark Spectrum Present: Yes
Reference Spectrum Present: Yes
Processed Spectrum Present: Yes
Spectrometers: JAZA3586
Integration Time (usec): 27600 (JAZA3586)
Spectra Averaged: 10 (JAZA3586)
Boxcar Smoothing: 1 (JAZA3586)
Correct for Electrical Dark: No (JAZA3586)
Strobe/Lamp Enabled: Yes (JAZA3586)
Correct for Detector Non-linearity: No (JAZA3586)
Correct for Stray Light: No (JAZA3586)
Number of Pixels in Processed Spectrum: 2048
>>>>>Begin Processed Spectral Data<<<<<
W	D	R	S	P
191.335022	0.000000	0.000000	0.000000	0.000000
191.713211	231.675903	230.932861	230.115540	209.996719
192.091385	465.135040	462.162933	465.358002	-7.501797
192.469528	702.606506	697.033875	707.138977	-81.334473
192.847641	708.922302	696.959473	715.832458	-57.763561
193.225739	719.473328	706.618896	719.324646	1.156657
193.603790	726.086243	718.135742	721.702332	55.140064
193.981842	730.692932	724.451477	727.572266	49.999023
194.359863	736.488586	730.990173	740.054993	-64.862465
194.737854	735.596924	736.191406	741.541199	999.907593
195.115829	734.110840	743.101563	741.541199	82.644737
195.493774	730.470032	743.250061	735.671204	40.697651
195.871704	732.104736	739.312073	736.117004	55.669220
196.249603	736.488586	745.999329	737.157410	7.032293
196.627457	737.008606	745.330627	744.364685	88.392937
197.005310	737.603088	743.695984	739.832214	36.585659
197.383133	737.454529	740.872375	743.175842	167.395264
197.760910	741.020996	746.965271	742.729980	28.750090
198.138687	738.420410	749.194336	751.423401	120.689438
198.516449	738.569031	749.268616	749.417236	101.389030
198.894180	729.801270	742.804382	746.222229	126.284836
199.271866	731.956116	741.318298	743.175781	119.840279
199.649536	734.185120	735.374023	738.643372	374.988464
200.027191	735.076843	741.466858	733.888000	-18.604696
200.404816	735.522644	741.243958	727.943665	-132.469223
200.782410	738.048889	759.299500	733.813660	-19.929920
201.159988	738.940613	763.980652	738.494812	-1.780352
201.537537	732.773438	768.587402	740.723816	22.199102
201.915070	718.358704	755.435791	739.757874	57.715347
202.292557	719.101746	752.017883	733.516418	43.792114
202.670029	722.965515	753.949768	735.225403	39.568123
203.047485	724.674377	760.859924	731.807434	19.712446
203.424911	728.538147	759.002258	729.058289	1.707391
203.802292	722.222473	764.203552	723.411316	2.831854
204.179688	722.816895	765.838196	723.708496	2.072465
204.557037	718.655945	772.822571	724.228577	10.287944
204.934357	727.646545	768.438782	724.748718	-7.103869
205.311661	726.532043	775.646179	721.479431	-10.287491
205.688934	725.863281	769.181824	729.801270	9.090768
206.066177	720.439209	765.763855	728.761047	18.360516
206.443390	720.885010	763.832031	733.516418	29.411606
206.820587	713.157532	765.392334	727.274963	27.026869
207.197769	708.550781	775.646057	730.692932	33.001057
207.574921	709.888184	768.884521	727.275085	29.471155
207.952042	709.962463	768.141602	727.200745	29.629662
208.329147	711.374207	761.528625	728.315247	33.777763
208.706223	725.417480	769.850403	743.695984	41.137299
209.083267	732.847717	768.290100	738.049011	14.675350
209.460297	737.825989	768.513123	741.169678	10.896062
209.837280	722.816895	754.618469	729.504089	21.027874
210.214264	714.866516	756.104492	737.157288	54.053989
210.591217	711.671570	758.259277	732.996338	45.773380
210.968124	709.368103	758.630798	733.293640	48.567253
211.345016	717.541443	761.677246	728.241028	24.242416
211.721893	717.689941	762.940369	721.256531	7.881891
212.098724	722.742615	763.906250	713.900574	-21.480225
212.475555	729.206970	753.726807	721.330811	-32.121582
212.852356	729.949890	747.931213	723.262695	-37.189671
213.229126	728.463867	746.890930	727.720886	-4.032010
213.605865	714.272034	757.218994	731.733215	40.657551
213.982590	717.987244	760.191101	733.293640	36.267765
214.359283	719.027527	765.318054	733.813721	31.942160
214.735931	725.714661	756.624695	723.485596	-7.211461
215.112579	720.662109	753.503906	725.194580	13.800921
215.489197	722.148132	752.760925	728.686768	21.359159
215.865799	721.330811	760.191223	730.247070	22.944326
216.242355	714.420654	762.271667	733.739441	40.372784
216.618896	715.981018	764.352051	725.417480	19.508499
216.995407	709.665283	762.643127	727.572266	33.800888
217.371902	711.374268	757.590515	729.875671	40.032249
217.748367	712.414490	760.191101	739.237793	56.143169
218.124802	714.197754	759.002258	738.197510	53.565498
218.501236	715.683777	761.900146	731.733215	34.726742
218.877609	709.293762	758.333496	725.789001	33.636478
219.253983	706.247314	759.745300	717.169922	20.416857
219.630295	702.532227	761.379883	716.055359	22.979900
220.006592	704.538391	761.157043	715.981018	20.209995
220.382889	706.173096	757.739075	719.027405	24.927887
220.759140	712.340149	759.596680	721.405090	19.182409
221.135391	711.374207	757.441956	716.352539	10.806546
221.511581	714.717834	759.968262	719.844727	11.330041
221.887772	713.231750	760.785583	726.680603	28.281322
222.263931	711.894348	765.763855	724.748718	23.862053
222.640060	710.779785	770.519226	722.222412	19.154224
223.016159	712.340149	770.147705	719.101746	11.696735
223.392212	712.711670	773.565613	726.754883	23.076916
223.768265	714.123474	776.017578	733.145020	30.732403
224.144302	718.953125	781.293152	724.600159	9.058439
224.520294	716.649719	776.389160	722.371094	9.577214
224.896286	716.501160	765.020813	715.089417	-2.909631
225.272217	714.346375	756.104492	728.983948	35.053242
225.648148	718.581543	755.510071	730.395752	31.992092
226.024048	713.306091	753.875427	742.209900	71.245453
226.399902	713.529053	756.550293	740.500977	62.694435
226.775772	708.996582	757.070496	738.494690	61.359905
227.151581	711.597168	762.494568	731.064453	38.248093
227.527374	708.625000	758.630798	721.925293	26.597502
227.903137	712.191589	750.531738	724.674500	32.558323
228.278870	722.371094	753.206726	727.943848	18.072449
228.654572	722.222473	754.544128	725.566101	10.344853
229.030273	721.776611	763.683350	723.039795	3.014273
229.405930	715.535156	769.701904	727.126465	21.399307
229.781555	711.002747	774.680176	729.875671	29.638327
230.157181	709.293762	773.119812	734.482422	39.464542
230.532761	703.869629	770.816406	724.154297	30.299692
230.908325	712.563171	775.646179	721.925232	14.840859
231.283859	713.380432	775.274597	719.993347	10.684230
231.659332	713.826233	770.370605	728.909668	26.675396
232.034821	711.597168	771.782410	736.042786	40.617294
232.410263	711.820068	775.348816	739.312012	43.274807
232.785690	711.522888	779.361145	732.030457	30.230093
233.161087	715.832458	769.256042	724.080017	15.438048
233.536469	718.358704	764.797852	713.900574	-9.599939
233.911804	726.977783	756.327393	711.894348	-51.392284
234.287140	722.891113	756.847473	718.284424	-13.566500
234.662430	717.838623	762.123047	729.281250	25.838943
235.037704	715.386536	767.695740	738.048889	43.323837
235.412933	709.962463	775.868958	736.191406	39.797207
235.788162	705.652893	774.828674	737.380188	45.864742
236.163345	713.751953	778.841064	738.494812	38.013821
236.538513	718.730164	776.983582	734.333801	26.785789
236.913635	729.801270	774.903076	727.795105	-4.448080
237.288742	723.262695	766.506836	719.696106	-8.247567
237.663834	720.662109	760.636963	725.937683	13.197231
238.038879	717.169861	758.333557	725.640442	20.577795
238.413910	707.436218	760.488342	723.411316	30.112080
238.788910	710.779785	764.054871	720.513489	18.270649
239.163879	711.374268	771.559509	721.925293	17.530918
239.538834	715.758118	775.497498	726.977783	18.781021
239.913757	718.730286	776.983582	728.240967	16.326426
240.288651	724.525879	770.296326	726.754883	4.869963
240.663528	716.575439	771.485168	726.457703	17.997290
241.038361	707.213318	772.005310	734.779541	42.545727
241.413177	701.343323	779.509827	734.036621	41.825203
241.787979	709.888184	783.447937	730.841553	28.484827
242.162735	714.197754	788.203308	721.182190	9.437718
242.537476	716.426819	789.912292	721.553711	6.976742
242.912170	720.067688	788.723389	724.302917	6.168795
243.286865	716.278320	781.813293	723.782776	11.451070
243.661514	708.625183	786.642883	721.182129	16.094995
244.036148	708.847961	787.608826	727.349304	23.490528
244.410751	717.021301	791.992676	732.773438	21.010868
244.785339	724.080017	789.837952	733.888000	14.915285
245.159882	722.445313	787.014465	723.782776	2.071366
245.534378	713.380371	785.156921	723.039795	13.457632
245.908890	708.104919	788.128967	727.349304	24.048252
246.283356	706.544495	793.850281	733.070618	30.383007
246.657791	709.516663	809.973938	731.213074	21.597651
247.032196	707.956299	816.289734	729.206848	19.615873
247.406586	709.368103	823.794250	732.401917	20.129852
247.780960	714.494934	820.747864	731.733215	16.223818
248.155289	716.352539	815.992493	737.528809	21.252789
248.529602	716.798340	819.707581	732.996399	15.740141
248.903870	715.535156	817.998718	739.312073	23.205240
249.278122	722.816895	812.871765	732.104736	10.313537
249.652344	721.256531	806.110291	737.380188	19.001701
250.026550	722.593994	799.423035	729.652771	9.187641
250.400711	720.439209	801.280579	731.733215	13.970577
250.774857	723.336914	803.732605	725.714661	2.957555
251.148987	726.383362	804.475586	729.206848	3.615579
251.523071	721.405090	809.156555	736.414246	17.104164
251.897125	712.488831	808.785095	734.482422	22.839506
252.271164	703.944031	813.763428	724.674500	18.876873
252.645187	706.544617	813.466125	720.290588	12.856133
253.019165	712.340149	814.357849	719.621887	7.137721
253.393112	720.513489	812.500244	725.789001	5.735078
253.767044	725.491699	808.413574	723.931396	-1.881654
254.140930	728.909668	803.138123	730.321472	1.901972
254.514801	723.039795	804.772766	727.497986	5.454581
254.888657	715.832336	808.339355	724.228577	9.076327
255.262466	713.454773	814.506348	723.634216	10.073513
255.636276	716.724121	815.918152	729.801270	13.183403
256.010010	724.302917	809.156555	732.327637	9.457130
256.383759	720.662109	806.927551	731.881836	13.006050
256.757446	715.163757	814.803528	729.132629	14.019374
257.131134	704.984192	827.880859	729.949951	20.314432
257.504791	706.916077	843.335876	726.086182	14.052289
257.878418	710.408386	848.091309	730.990234	14.948730
258.252014	716.203918	855.595886	728.538269	8.848681
258.625580	716.129639	856.858948	724.971680	6.283013
258.999115	718.284363	865.626709	719.919006	1.109419
259.372650	716.575439	880.784485	720.290527	2.262414
259.746124	715.980957	905.527283	723.708496	4.076860
260.119598	715.312317	932.647705	723.411316	3.726498
260.493042	711.597168	952.486572	729.355530	7.371998
260.866425	711.894348	954.715637	728.166687	6.701364
261.239838	709.665283	939.483582	731.807556	9.634686
261.613159	713.529053	913.997742	730.693054	8.561936
261.986511	715.832458	896.462402	734.333801	10.242678
262.359802	722.371094	892.301453	735.076843	7.477033
262.733063	729.652771	893.415833	730.990173	0.816669
263.106293	728.389587	898.245544	729.875671	0.874908
263.479523	721.925232	898.171204	728.909668	3.962891
263.852692	713.751953	892.970032	727.646545	7.752897
264.225861	712.265869	893.044373	726.754883	8.014788
264.598969	713.380371	885.836914	724.823059	6.635114
264.972076	707.361877	894.084656	726.754883	10.385988
265.345154	707.882019	894.307556	728.909668	11.279383
265.718201	708.030701	913.774841	739.683594	15.384590
266.091217	721.330872	928.115234	739.386414	8.731580
266.464203	724.748718	931.830383	739.312012	7.032633
266.837158	714.717834	940.969666	725.937500	4.958928
267.210114	705.727234	945.725037	728.018066	9.287931
267.583038	707.882019	957.464844	729.578430	8.693070
267.955902	713.974854	956.276062	729.652771	6.470425
268.328766	717.838562	955.087158	726.754944	3.758244
268.701569	715.758118	956.053040	724.080078	3.463228
269.074371	716.724121	966.826965	723.039856	2.525255
269.447144	712.340271	976.040527	724.600159	4.649176
269.819885	711.151367	987.037354	727.423645	5.898190
270.192596	717.318542	984.436707	731.287354	5.229450
270.565277	725.640381	1002.120789	728.909668	1.182466
270.937927	725.566101	1022.851257	726.234863	0.224956
271.310577	725.863281	1061.562866	737.677429	3.519262
271.683136	724.823059	1084.596802	746.890930	6.133819
272.055725	723.634216	1113.129028	748.748535	6.447921
272.428284	719.919128	1118.478882	739.609314	4.940335
272.800812	715.238037	1121.822388	739.312012	5.921028
273.173279	717.467041	1109.339600	746.445129	7.394773
273.545776	714.643555	1103.469727	746.147949	8.102437
273.918152	713.900574	1106.144653	741.392578	7.008903
274.290558	710.036804	1103.321167	727.943787	4.553190
274.662964	708.253601	1100.423340	726.606262	4.679775
275.035278	713.677551	1092.844360	719.547546	1.548130
275.407593	717.169861	1091.135376	723.188416	1.609388
275.779907	725.937683	1101.463501	723.039795	-0.771688
276.152161	716.352539	1123.160034	727.572266	2.757994
276.524384	719.398926	1140.323853	731.361755	2.842034
276.896606	709.962463	1145.153564	734.185242	5.566010
277.268799	709.442383	1140.323853	734.854004	5.897590
277.640930	699.485840	1151.840820	735.002502	7.851502
278.013031	704.835632	1169.822144	729.801331	5.369123
278.385162	714.049133	1173.908691	728.686768	3.183066
278.757233	719.398926	1173.537231	720.736389	0.294506
279.129272	717.912903	1160.757080	721.479309	0.805341
279.501282	718.655945	1167.221436	717.838562	-0.182222
279.873230	716.426941	1178.664063	718.358704	0.417916
280.245178	721.925232	1208.756714	721.256531	-0.137358
280.617126	723.485596	1248.954468	729.058289	1.060518
280.988983	728.686707	1277.040894	740.352295	2.127382
281.360870	724.377197	1302.675293	742.135559	3.070797
281.732697	721.033630	1322.142578	735.299744	2.373299
282.104492	719.101746	1353.795532	734.110840	2.364777
282.476288	721.925293	1385.894531	733.962219	1.812874
282.848053	714.346375	1404.692993	736.934387	3.271981
283.219757	708.699280	1406.476196	732.253235	3.375571
283.591461	704.909912	1393.993530	737.082947	4.668960
283.963135	704.612732	1379.355835	737.380188	4.856286
284.334747	709.145203	1378.018188	740.129395	4.632298
284.706360	713.826233	1400.012085	726.011902	1.775855
285.077942	719.919128	1433.299438	727.646545	1.083211
285.449524	717.912903	1463.614868	725.417480	1.006378
285.821014	714.197754	1495.044922	729.504150	1.960230
286.192535	717.838562	1520.679565	732.476257	1.823237
286.563995	724.674377	1544.902222	728.538147	0.471061
286.935425	721.479431	1556.196289	721.999512	0.062306
287.306824	718.358704	1554.190063	718.507324	0.017781
287.678223	706.321594	1541.707153	720.662109	1.716634
288.049561	711.820007	1511.763184	736.117004	3.037340
288.420898	706.990417	1496.085327	738.420410	3.983043
288.792145	710.259766	1495.788086	747.336731	4.720004
289.163452	706.470276	1516.146973	744.959045	4.753597
289.534668	701.120422	1539.923828	746.816711	5.447795
289.905914	700.154541	1577.075195	741.021057	4.660230
290.277039	704.389832	1608.876831	735.968506	3.491335
290.648193	711.522888	1661.334473	734.408203	2.409458
291.019318	712.117371	1696.999878	733.962341	2.218028
291.390381	707.733398	1720.776733	739.683594	3.153883
291.761475	707.807800	1721.965454	738.197510	2.996547
292.132507	715.832458	1703.241211	733.665039	1.805998
292.503510	715.163757	1691.650024	732.773438	1.803372
292.874481	718.581604	1676.789551	729.206848	1.108866
293.245422	715.980957	1681.470581	731.361633	1.593044
293.616364	717.838562	1705.321777	728.538147	1.083521
293.987213	715.683838	1730.064453	732.773438	1.684732
294.358093	716.426819	1782.373657	728.389587	1.122267
294.728943	719.398926	1828.292603	729.652771	0.924691
295.099731	718.433105	1893.084595	737.677429	1.638301
295.470490	718.210144	1923.697388	740.575195	1.855271
295.841248	715.089417	1941.084351	739.014832	1.951510
296.211975	723.411316	1958.248169	732.253357	0.716049
296.582642	721.850891	2006.619141	737.603027	1.226068
296.953308	721.182190	2068.736328	737.825989	1.235112
297.323883	717.095520	2116.735840	734.853943	1.268785
297.694519	720.364929	2153.070068	728.463867	0.565290
298.065063	720.364807	2162.655029	729.949890	0.664574
298.435608	715.089355	2129.218750	732.699158	1.245275
298.806122	711.448547	2063.683838	733.962219	1.664923
299.176575	708.996582	1999.114624	732.773438	1.842999
299.547028	711.299988	1973.926147	733.590759	1.765429
299.917450	703.052429	1956.464966	736.637207	2.679467
300.287872	707.138977	1948.663208	737.825989	2.471721
300.658234	705.058533	1937.146118	739.089172	2.762031
301.028564	715.981018	1937.369141	737.157227	1.733782
301.398865	717.318542	1933.133789	730.692871	1.100030
301.769135	722.296814	1931.350586	726.086182	0.313416
302.139374	712.042969	1930.979004	733.665039	1.773848
302.509583	708.773682	1938.929321	740.575195	2.585162
302.879791	712.711731	1950.966431	738.569092	2.088210
303.249939	721.182129	1948.365845	731.064453	0.805285
303.620087	721.256531	1927.932617	728.315247	0.584972
303.990173	720.067688	1900.366333	726.977783	0.585453
304.360260	724.600098	1900.589478	728.166687	0.303284
304.730286	729.875671	1913.146484	729.504150	-0.031398
305.100281	726.011902	1927.115356	733.590820	0.630996
305.470276	718.061523	1943.164673	731.658875	1.109894
305.840179	714.940735	1954.681641	733.888000	1.528325
306.210144	709.962463	1970.731079	729.132568	1.520509
306.579987	713.231750	1967.833374	729.058350	1.261484
306.949890	715.014954	1986.706055	727.795166	1.004978
307.319702	717.987122	2001.046509	734.631042	1.297206
307.689484	720.216309	2022.148560	737.974609	1.363996
308.059265	716.501160	2041.467163	734.705322	1.373934
308.429016	718.135803	2088.054932	726.680664	0.623749
308.798737	709.293762	2157.008057	731.658875	1.544857
309.168396	712.934570	2223.285889	739.386414	1.751370
309.538055	712.191589	2268.684814	745.181946	2.119531
309.907684	713.974854	2287.186523	741.763977	1.766394
310.277313	709.813904	2311.929199	732.030334	1.386694
310.646851	709.813904	2325.155029	729.058289	1.191351
311.016388	711.522949	2345.588379	721.925110	0.636582
311.385895	709.962585	2345.291016	721.627991	0.713337
311.755371	710.928467	2363.866699	724.674500	0.831612
312.124817	718.433044	2368.473633	725.640381	0.436798
312.494232	724.748779	2365.575928	735.002502	0.624912
312.863617	731.807434	2342.987549	731.807434	0.000000
313.232971	722.742615	2318.988037	734.259460	0.721496
313.602295	718.358704	2306.728271	729.132629	0.678301
313.971619	710.408386	2315.198486	732.179016	1.356603
314.340820	704.687012	2328.424561	730.544373	1.592459
314.710083	700.674622	2368.622070	727.720886	1.621530
315.079285	700.154541	2396.782959	727.126465	1.589737
315.448486	709.591003	2439.878662	736.265625	1.541629
315.817596	715.758118	2431.556641	745.627747	1.740859
316.186707	714.197754	2400.052002	750.011719	2.124381
316.555786	713.454773	2338.826660	747.411133	2.089144
316.924866	714.792175	2298.331543	743.770264	1.829957
317.293884	719.993347	2280.499023	739.386414	1.242743
317.662872	726.457703	2275.818115	738.643372	0.786497
318.031830	718.953125	2280.127686	736.934387	1.151778
318.400757	714.420654	2289.638428	734.333801	1.264152
318.769684	716.055237	2320.697021	725.491760	0.588077
319.138550	718.878845	2346.925781	723.782898	0.301223
319.507416	720.736389	2373.749023	730.767273	0.606824
319.876190	704.092590	2387.718018	741.095398	2.197805
320.244995	711.151367	2386.603516	748.005554	2.199656
320.613770	711.671448	2369.736816	745.924988	2.065874
320.982483	717.169922	2345.217041	737.825989	1.268763
321.351166	716.649719	2329.167236	727.943787	0.700400
321.719818	715.981018	2307.991211	725.640381	0.606740
322.088440	723.114075	2302.641357	733.516418	0.658573
322.457062	720.290527	2319.953857	744.290344	1.500304
322.825623	725.789001	2360.597412	746.222168	1.249882
323.194183	714.643555	2414.169678	738.271790	1.390284
323.562653	710.556885	2467.964844	737.751770	1.547443
323.931183	706.247375	2534.020020	735.299805	1.589499
324.299591	710.779785	2597.697510	742.284180	1.669622
324.668060	713.751953	2668.656494	733.665039	1.018622
325.036407	713.900574	2710.860352	733.739441	0.993454
325.404755	718.953125	2740.655518	726.829163	0.389575
