Jaz Data File
++++++++++++++++++++++++++++++++++++
Date: Fri Jun 04 16:55:46 2021
User: jaz
Dark Spectrum Present: Yes
Reference Spectrum Present: Yes
Processed Spectrum Present: Yes
Spectrometers: JAZA3586
Integration Time (usec): 26900 (JAZA3586)
Spectra Averaged: 10 (JAZA3586)
Boxcar Smoothing: 1 (JAZA3586)
Correct for Electrical Dark: No (JAZA3586)
Strobe/Lamp Enabled: Yes (JAZA3586)
Correct for Detector Non-linearity: No (JAZA3586)
Correct for Stray Light: No (JAZA3586)
Number of Pixels in Processed Spectrum: 2048
>>>>>Begin Processed Spectral Data<<<<<
W	D	R	S	P
191.335022	0.000000	0.000000	0.000000	0.000000
191.713211	231.824478	223.576904	229.892624	23.423304
192.091385	465.580902	454.658356	464.912109	6.123048
192.469528	703.795410	697.033875	699.411438	64.836929
192.847641	715.832458	712.340149	703.423828	355.313019
193.225739	725.120300	725.268860	710.482666	-9853.040039
193.603790	738.123230	728.761047	717.392761	221.427734
193.981842	739.089172	738.197571	729.578430	1066.703125
194.359863	739.460632	743.324463	736.265686	-82.688568
194.737854	732.624817	745.702148	745.553528	98.863525
195.115829	740.278015	744.216003	751.200500	277.362061
195.493774	746.890930	744.884766	747.782532	-44.443092
195.871704	745.627747	747.856873	750.457520	216.666672
196.249603	741.912598	747.485352	750.234558	149.332993
196.627457	744.661865	747.782532	755.807312	357.149567
197.005310	745.107727	743.175781	751.497742	-330.755371
197.383133	743.324463	743.398743	751.126160	10503.122070
197.760910	734.036621	739.386414	748.525574	270.832062
198.138687	732.327637	735.894104	745.553528	370.840118
198.516449	729.281250	735.299805	736.191406	114.814217
198.894180	729.206848	732.624817	742.284180	382.605347
199.271866	735.299744	734.556641	745.404846	-1359.852173
199.649536	736.934387	730.247070	750.903320	-208.886963
200.027191	736.042725	729.504089	745.776428	-148.864456
200.404816	733.962219	731.361633	745.776428	-454.290283
200.782410	733.367859	754.321289	753.132385	94.325974
201.159988	737.454529	773.788574	752.686523	41.922100
201.537537	735.151123	779.138367	750.085938	33.952602
201.915070	731.658875	774.457275	737.528809	13.715312
202.292557	737.454529	775.943359	734.853943	-6.756729
202.670029	740.426575	783.522217	739.980774	-1.034445
203.047485	742.284180	778.692566	742.952881	1.836668
203.424911	730.098572	769.701904	741.169678	27.954987
203.802292	728.018066	760.042480	739.014893	34.338882
204.179688	728.166687	759.968201	739.683594	36.214966
204.557037	732.699158	756.104492	745.107666	53.015728
204.934357	727.423645	767.547180	746.593750	47.777706
205.311661	730.470032	764.277832	746.668030	47.912014
205.688934	726.383362	771.039368	745.107727	41.930229
206.066177	728.166687	760.711243	746.073547	55.022598
206.443390	717.541321	768.587402	754.544128	72.489029
206.820587	723.039734	772.451111	754.915710	64.511414
207.197769	728.092346	776.166260	752.760925	51.313858
207.574921	731.213074	773.491394	742.655701	27.064999
207.952042	731.510254	767.175598	739.460632	22.291607
208.329147	725.714661	766.581116	732.401917	16.363680
208.706223	728.463867	778.766785	738.866211	20.679405
209.083267	718.730225	781.590332	736.860107	28.841635
209.460297	714.717834	779.509827	734.705322	30.848701
209.837280	715.460876	770.965088	727.275085	21.285248
210.214264	715.163757	768.736023	732.996338	33.286964
210.591217	727.052063	772.748291	739.609314	27.479841
210.968124	728.018066	770.816406	744.290344	38.020817
211.345016	736.637146	770.593567	749.565857	38.074421
211.721893	729.206848	763.386169	747.113831	52.391277
212.098724	721.256531	751.869324	744.141785	74.757156
212.475555	717.467102	755.064270	732.401917	39.723244
212.852356	712.265930	756.847473	727.646484	34.499825
213.229126	721.330750	768.290100	729.504150	17.405268
213.605865	715.609436	765.318054	728.612488	26.158546
213.982590	722.296692	764.946472	732.253235	23.344887
214.359283	716.129639	755.138489	729.429871	34.095421
214.735931	724.005676	754.321228	729.875671	19.362984
215.112579	722.296814	755.807312	732.624817	30.820202
215.489197	725.343079	759.225281	737.231628	35.087891
215.865799	720.439148	750.531738	737.974609	58.271690
216.242355	717.021301	753.875488	738.643311	58.669071
216.618896	712.934631	757.144714	744.661926	71.764839
216.995407	711.968689	766.283997	747.485352	65.389786
217.371902	714.049133	764.872253	752.909485	76.461952
217.748367	719.621826	759.893860	748.525635	71.771416
218.124802	722.891113	757.441895	748.451355	73.978767
218.501236	721.256531	755.064270	744.364563	68.351311
218.877609	711.299988	755.212891	733.516418	50.592033
219.253983	714.123352	758.333496	727.126465	29.412058
219.630295	715.312256	760.562683	728.389587	28.899908
220.006592	720.216309	758.556458	732.624817	32.364269
220.382889	716.946960	753.875427	742.804260	70.019966
220.759140	720.662109	754.841309	736.637207	46.739239
221.135391	726.383484	756.996094	739.386414	42.475731
221.511581	726.754944	762.866028	741.392578	40.535019
221.887772	727.646545	759.893982	740.129395	38.709587
222.263931	728.835388	769.256042	739.163391	25.551300
222.640060	725.788879	762.568848	733.516418	21.010183
223.016159	716.055359	765.838196	737.825989	43.731197
223.392212	713.083191	765.392395	737.083008	45.880676
223.768265	717.912903	772.005310	740.352356	41.483555
224.144302	728.389465	775.348877	742.878662	30.854723
224.520294	722.965393	780.252869	743.844543	36.446274
224.896286	727.126465	777.429382	741.689758	28.951191
225.272217	727.349365	776.091980	742.432861	30.945192
225.648148	729.281189	769.479004	744.810486	38.632191
226.024048	727.349365	766.952698	745.256348	45.215847
226.399902	729.206848	768.884521	743.918762	37.078571
226.775772	731.138733	765.020813	744.513245	39.473701
227.151581	728.240967	774.977356	745.107666	36.089008
227.527374	725.120300	771.485107	738.197571	28.205166
227.903137	725.194580	770.519226	736.711487	25.409811
228.278870	721.776611	765.095154	732.104736	23.842272
228.654572	721.256531	765.689514	736.414246	34.113655
229.030273	723.931396	767.398499	738.494690	33.504173
229.405930	727.646484	770.742188	744.438965	38.965557
229.781555	721.107910	769.999207	747.559570	54.103004
230.157181	719.770508	775.794739	740.649414	37.267635
230.532761	710.334045	776.463379	737.454407	41.011093
230.908325	713.528992	774.605774	737.528809	39.294502
231.283859	714.792175	772.822571	741.838379	46.606960
231.659332	722.519714	766.878357	741.763977	43.383343
232.034821	723.039795	774.011414	741.243958	35.714310
232.410263	719.770508	771.410828	739.609314	38.417278
232.785690	722.148132	770.593506	738.420410	33.588921
233.161087	726.457703	770.742188	741.763977	34.563515
233.536469	723.114075	775.646179	743.324402	38.472336
233.911804	720.810730	776.983582	743.695862	40.740555
234.287140	712.414490	773.045471	740.723816	46.691189
234.662430	713.974854	764.872253	737.454407	46.131145
235.037704	719.027405	758.779358	742.581360	59.252323
235.412933	723.931396	758.556458	741.615417	51.072895
235.788162	727.423645	761.974426	740.723877	38.494736
236.163345	725.343079	769.627625	733.293518	17.953079
236.538513	725.714661	767.398499	735.448303	23.351118
236.913635	722.668213	768.438782	740.649475	39.285645
237.288742	711.076965	767.101318	745.182068	60.875496
237.663834	713.231873	767.992981	739.089172	47.218365
238.038879	718.507324	768.810242	738.866211	40.472576
238.413910	725.640381	770.742126	739.906494	31.630957
238.788910	725.343201	773.194092	741.169617	33.074444
239.163879	730.544250	770.593445	744.438965	34.694118
239.538834	730.841492	773.714172	747.262451	38.301685
239.913757	729.206848	771.336609	749.565857	48.324532
240.288651	717.244141	767.101318	748.377014	62.444115
240.663528	715.312317	772.153870	747.262451	56.209114
241.038361	716.203918	778.098145	744.513245	45.738235
241.413177	722.742615	790.283752	736.562805	20.461885
241.787979	725.268860	781.367432	727.869446	4.635744
242.162735	722.668274	787.831787	728.018066	8.209798
242.537476	718.284363	787.088684	730.247131	17.386652
242.912170	713.974854	802.692383	735.671204	24.455540
243.286865	716.129578	799.868835	735.968445	23.691238
243.661514	723.039734	803.583984	739.609192	20.571869
244.036148	728.612488	795.336365	741.912598	19.933060
244.410751	730.321472	796.079346	741.169617	16.497103
244.785339	719.919128	795.782166	741.095398	27.913816
245.159882	718.804504	802.097839	740.798157	26.405056
245.534378	720.662109	799.571594	737.974609	21.939695
245.908890	727.126465	796.227966	735.299744	11.827932
246.283356	733.813660	792.067078	734.631042	1.403150
246.657791	730.841553	797.862610	741.838379	16.408016
247.032196	723.039734	808.785095	740.649597	20.537395
247.406586	715.386536	814.803650	733.144958	17.862541
247.780960	715.163757	827.732361	730.990234	14.059406
248.155289	719.398926	834.568176	737.900330	16.064535
248.529602	719.919128	839.472168	743.324402	19.577314
248.903870	722.073914	829.367004	746.965332	23.199461
249.278122	722.222412	819.410400	741.169617	19.495419
249.652344	723.336975	813.837646	746.816650	25.944201
250.026550	718.358704	811.905762	740.946716	24.146151
250.400711	725.491760	809.602356	743.324402	21.201422
250.774857	722.593994	807.224670	740.500916	21.158901
251.148987	732.476257	807.967773	743.621643	14.763760
251.523071	727.943665	813.837646	737.157288	10.726739
251.897125	728.612488	814.729309	733.739319	5.953344
252.271164	714.494934	817.701416	733.219238	18.142567
252.645187	711.597168	816.735535	737.751709	24.876305
253.019165	708.402161	820.896484	739.163513	27.344805
253.393112	713.826233	816.958435	743.993164	29.250738
253.767044	714.346375	815.175110	741.392517	26.823843
254.140930	725.788879	804.401306	736.934326	14.177716
254.514801	718.878845	802.246399	732.104675	15.864481
254.888657	724.897400	800.166016	732.847717	10.562593
255.262466	723.411316	812.128723	739.163513	17.755476
255.636276	735.002502	815.546692	748.451355	16.697483
256.010010	733.070618	822.159668	754.841370	24.437069
256.383759	724.377258	826.172058	756.327393	31.386805
256.757446	720.885010	830.630127	747.931152	24.644506
257.131134	715.758118	831.521790	743.250183	23.748440
257.504791	719.398987	829.887024	743.175781	21.519791
257.878418	715.832458	836.871582	743.398682	22.774639
258.252014	714.569336	855.595886	748.005554	23.709166
258.625580	715.832458	871.050781	749.268555	21.541334
258.999115	721.330811	893.861633	755.807312	19.982807
259.372650	726.086243	902.778015	748.228333	12.531478
259.746124	720.067688	921.502380	739.386414	9.590566
260.119598	710.408264	937.254578	728.018066	7.762878
260.493042	706.990417	950.851990	726.234802	7.891520
260.866425	711.076965	960.511292	733.590759	9.025941
261.239838	715.683777	950.926270	739.757874	10.233736
261.613159	717.392761	937.403137	744.364746	12.259415
261.986511	721.107910	912.288879	746.296570	13.175297
262.359802	725.566101	896.536621	744.438965	11.038666
262.733063	730.024231	886.431458	749.194336	12.256534
263.106293	729.355530	886.208557	745.330566	10.184717
263.479523	736.562805	884.351013	741.020996	3.016608
263.852692	732.922058	881.304504	738.420410	3.705527
264.225861	729.875671	881.378845	734.185242	2.844541
264.598969	722.296692	882.864807	741.615417	12.031483
264.972076	723.857117	890.666687	745.479187	12.962129
265.345154	729.652649	891.261169	755.807312	16.183964
265.718201	730.544373	903.966980	750.828918	11.696598
266.091217	731.138733	914.517883	754.989990	13.006526
266.464203	722.965515	928.189514	747.485413	11.947870
266.837158	721.627991	936.065674	749.417236	12.959125
267.210114	721.405090	947.582520	745.553528	10.676767
267.583038	724.228577	962.666016	742.655762	7.728310
267.955902	724.080017	965.563782	750.160339	10.800032
268.328766	725.640381	974.405945	746.965271	8.572284
268.701569	725.863281	967.421387	743.844543	7.443866
269.074371	726.309143	971.508057	738.791931	5.090882
269.447144	719.250427	972.845459	735.225403	6.299404
269.819885	716.872620	988.374756	738.643311	8.018607
270.192596	714.866516	994.096008	734.333801	6.971787
270.565277	723.411316	1006.727539	732.327637	3.147127
270.937927	724.971680	1021.662354	733.144958	2.754815
271.310577	726.606384	1053.241089	735.819824	2.820717
271.683136	717.318542	1078.652588	745.404846	7.772947
272.055725	720.810730	1106.218872	749.342957	7.403120
272.428284	715.609558	1112.757568	750.383118	8.755818
272.800812	724.302917	1114.540894	750.085938	6.606999
273.173279	719.844788	1101.314941	751.869324	8.395031
273.545776	726.457703	1109.116699	753.206726	6.990303
273.918152	720.885071	1102.057983	754.098328	8.713436
274.290558	720.885071	1099.828979	747.188171	6.941159
274.662964	715.683838	1084.076782	739.237793	6.393704
275.035278	720.067688	1082.293457	737.157288	4.717941
275.407593	720.513489	1095.073486	742.284180	5.812337
275.779907	721.851013	1107.779175	748.228333	6.834774
276.152161	716.798340	1123.234253	746.370789	7.276042
276.524384	714.494934	1127.692383	748.154114	8.146028
276.896606	721.107910	1147.828491	745.553528	5.728718
277.268799	714.643555	1161.128540	743.250183	6.407075
277.640930	720.141907	1172.496948	738.717590	4.106439
278.013031	714.346375	1163.432007	744.513245	6.717398
278.385162	719.250305	1164.843750	739.906494	4.635658
278.757233	711.077148	1162.688843	742.581360	6.975951
279.129272	711.671448	1175.171875	743.770203	6.925292
279.501282	714.717957	1186.540161	750.977539	7.685010
279.873230	717.838562	1203.778320	741.541199	4.877690
280.245178	719.027405	1222.576904	736.934387	3.556151
280.617126	719.324646	1243.827515	738.940613	3.739916
280.988983	716.872620	1269.610474	746.519470	5.363637
281.360870	706.470276	1287.369019	740.055115	5.781531
281.732697	702.755188	1313.597778	732.327637	4.841255
282.104492	705.801575	1338.414917	734.110840	4.474971
282.476288	714.272034	1366.204102	744.810486	4.684300
282.848053	720.587708	1385.151367	753.503906	4.953054
283.219757	722.668213	1396.891113	753.578186	4.584533
283.591461	726.829163	1403.801392	748.897156	3.259808
283.963135	723.039795	1399.640259	748.525635	3.766749
284.334747	714.940735	1397.114258	751.349121	5.337115
284.706360	710.259766	1418.884766	747.188171	5.211276
285.077942	707.287598	1453.658325	740.575195	4.459928
285.449524	716.129639	1487.540405	735.151123	2.465805
285.821014	716.352539	1496.828125	733.516418	2.199157
286.192535	722.965515	1511.985962	736.637207	1.732742
286.563995	717.764343	1537.397827	739.237793	2.619884
286.935425	714.866455	1566.152832	742.655701	3.264383
287.306824	715.683777	1568.233398	747.856873	3.773751
287.678223	723.931458	1554.561523	747.262451	2.808831
288.049561	734.036621	1536.208618	752.166504	2.260099
288.420898	732.179016	1520.530884	748.674255	2.092370
288.792145	736.191345	1516.221191	750.977600	1.895601
289.163452	732.401917	1522.239868	749.120056	2.116654
289.534668	730.321472	1549.731812	745.033386	1.795427
289.905914	723.114075	1576.852173	740.500977	2.036561
290.277039	723.857117	1612.963379	745.330566	2.415173
290.648193	728.092346	1651.526733	752.909485	2.687483
291.019318	730.915833	1693.804810	756.624573	2.669959
291.390381	735.002502	1715.575562	751.274841	1.659472
291.761475	732.253418	1715.798462	743.621582	1.155836
292.132507	726.532043	1702.795410	746.147949	2.009284
292.503510	714.866455	1689.049438	753.355286	3.950883
292.874481	718.061523	1673.297363	760.859863	4.480395
293.245422	722.073914	1679.390137	757.590515	3.710018
293.616364	729.206848	1696.331055	752.166443	2.374007
293.987213	726.606384	1740.095337	754.618469	2.763926
294.358093	732.104736	1787.277710	752.835205	1.964651
294.728943	730.321472	1849.469116	755.955872	2.290529
295.099731	727.126404	1901.629761	753.058044	2.207881
295.470490	715.535156	1936.254517	755.955872	3.311221
295.841248	717.541443	1960.402954	751.497742	2.732106
296.211975	719.176086	1987.300659	747.559753	2.238240
296.582642	726.160583	2035.077271	743.993164	1.362392
296.953308	721.033630	2082.185059	749.120056	2.063432
297.323883	721.405090	2127.063965	746.445129	1.781374
297.694519	728.538147	2156.041992	749.120056	1.441811
298.065063	728.686768	2159.757324	746.667969	1.256486
298.435608	727.423645	2126.915527	758.259277	2.203345
298.806122	718.581604	2070.148193	752.463623	2.506870
299.176575	720.959290	2008.774048	751.943542	2.405956
299.547028	722.148132	1959.139771	741.689758	1.579770
299.917450	719.993408	1933.356812	750.160339	2.486224
300.287872	718.358704	1927.486938	747.039551	2.372027
300.658234	720.587830	1937.443359	752.017883	2.582891
301.028564	724.897278	1937.963501	756.104553	2.572595
301.398865	726.903503	1928.973022	753.949707	2.249970
301.769135	726.309082	1923.474487	748.302734	1.837144
302.139374	724.971680	1919.684937	739.460693	1.212761
302.509583	726.383362	1928.601196	742.135559	1.310262
302.879791	721.330872	1935.362915	745.850769	2.019708
303.249939	719.621887	1935.140137	755.807312	2.976954
303.620087	721.107910	1923.103027	756.624695	2.954819
303.990173	724.748779	1904.898926	759.373779	2.933949
304.360260	730.172852	1898.880249	752.166443	1.881873
304.730286	730.098450	1904.973145	748.599915	1.574761
305.100281	730.395691	1913.369141	741.838379	0.967282
305.470276	730.990173	1928.972778	742.655762	0.973769
305.840179	732.253235	1952.229492	740.946777	0.712599
306.210144	730.024231	1976.675171	742.952942	1.037076
306.579987	717.392822	1995.325195	739.163513	1.703587
306.949890	706.990417	2007.213501	741.095276	2.623000
307.319702	711.745789	2022.445679	745.553467	2.579361
307.689484	723.039795	2038.420898	746.445129	1.779358
308.059265	732.327637	2069.256592	748.525635	1.211583
308.429016	731.733215	2112.723633	751.349121	1.420423
308.798737	725.714661	2176.103760	754.098328	1.956969
309.168396	725.343079	2225.069336	756.253113	2.061045
309.538055	722.445313	2266.381592	752.017883	1.915401
309.907684	728.538086	2287.409180	752.017822	1.506201
310.277313	731.658875	2309.997314	756.178772	1.553526
310.646851	731.213074	2330.578857	757.367676	1.635311
311.016388	728.463867	2347.594482	758.779480	1.872339
311.385895	728.686768	2351.606689	754.544128	1.593262
311.755371	736.340027	2347.446045	752.092102	0.977718
312.124817	738.717590	2346.554443	743.101563	0.272663
312.494232	730.544373	2348.263184	741.318298	0.665995
312.863617	721.627991	2345.588135	740.723877	1.175884
313.232971	714.049133	2341.947510	746.593750	1.999180
313.602295	716.946960	2323.817627	746.593750	1.845002
313.971619	716.501160	2323.817627	747.188171	1.909208
314.340820	712.414551	2321.216797	748.451233	2.239970
314.710083	709.516663	2363.718018	749.268555	2.403087
315.079285	708.402161	2404.213135	751.497742	2.541296
315.448486	721.776672	2449.389160	749.342957	1.595629
315.817596	720.587830	2450.132080	752.389343	1.838722
316.186707	724.080078	2408.299805	749.714417	1.522030
316.555786	720.216309	2353.167236	745.553528	1.551622
316.924866	722.222473	2305.687744	744.216003	1.388949
317.293884	727.423645	2294.170654	738.643372	0.716116
317.662872	730.172852	2293.502197	747.262451	1.093154
318.031830	722.445313	2310.517578	749.120117	1.679697
318.400757	720.587830	2319.730713	755.510071	2.183810
318.769684	721.999512	2331.544922	745.033447	1.431083
319.138550	728.241028	2346.405518	743.770264	0.959682
319.507416	724.228699	2373.006104	738.940613	0.892292
319.876190	720.141907	2386.529053	745.999329	1.551705
320.244995	722.073792	2386.157715	747.708313	1.540458
320.613770	722.371094	2358.962891	758.705078	2.220101
320.982483	721.702332	2338.529541	767.992981	2.863055
321.351166	722.222473	2316.684570	758.036377	2.246143
321.719818	720.067688	2313.638428	753.949707	2.126170
322.088440	717.764343	2317.873291	749.194336	1.964241
322.457062	718.878845	2339.124023	761.751465	2.646058
322.825623	720.662109	2375.904053	757.218994	2.208552
323.194183	720.959290	2426.058350	753.503906	1.908664
323.562653	726.829285	2481.042236	753.132385	1.499425
323.931183	731.287415	2549.697754	752.017883	1.140032
324.299591	732.922058	2615.084229	754.618408	1.152735
324.668060	726.606262	2674.452393	755.435791	1.480072
325.036407	721.033630	2709.597412	763.014648	2.111123
