Jaz Data File
++++++++++++++++++++++++++++++++++++
Date: Fri Jun 04 12:54:52 2021
User: jaz
Dark Spectrum Present: Yes
Reference Spectrum Present: Yes
Processed Spectrum Present: Yes
Spectrometers: JAZA3586
Integration Time (usec): 40000 (JAZA3586)
Spectra Averaged: 10 (JAZA3586)
Boxcar Smoothing: 1 (JAZA3586)
Correct for Electrical Dark: No (JAZA3586)
Strobe/Lamp Enabled: Yes (JAZA3586)
Correct for Detector Non-linearity: No (JAZA3586)
Correct for Stray Light: No (JAZA3586)
Number of Pixels in Processed Spectrum: 2048
>>>>>Begin Processed Spectral Data<<<<<
W	D	R	S	P
191.335022	0.000000	0.000000	0.000000	0.000000
191.713211	424.640045	428.652374	414.163422	-261.110779
192.091385	846.753845	859.013672	837.466003	-75.758347
192.469528	1283.133667	1284.322388	1267.232910	-1337.636108
192.847641	1300.743530	1286.997437	1287.591797	95.676147
193.225739	1322.068359	1296.508179	1300.520508	84.302422
193.603790	1320.879517	1312.483276	1306.241821	174.336304
193.981842	1316.569946	1320.507935	1308.099243	-215.102295
194.359863	1311.517334	1326.526489	1313.226196	11.385467
194.737854	1320.433716	1328.755615	1315.529663	-58.929489
195.115829	1324.743164	1333.882446	1318.576172	-67.477859
195.493774	1330.464478	1333.882446	1322.811401	-223.907150
195.871704	1333.287964	1328.012573	1320.136353	249.301178
196.249603	1341.015503	1325.783569	1321.622437	127.318481
196.627457	1339.083618	1321.325317	1308.916870	169.874069
197.005310	1337.448975	1324.074585	1309.585449	208.334930
197.383133	1336.260132	1323.703003	1304.978638	249.113434
197.760910	1337.746216	1323.257202	1314.489380	160.513596
198.138687	1332.767944	1327.120972	1320.879517	210.527451
198.516449	1331.504761	1324.891846	1324.594604	104.494858
198.894180	1329.275757	1324.594604	1320.953857	177.774597
199.271866	1323.405762	1314.043579	1314.192261	98.411888
199.649536	1314.786621	1314.340820	1309.288208	1233.379028
200.027191	1305.350220	1314.266479	1303.566895	-20.000822
200.404816	1308.693726	1323.405762	1304.235718	-30.301773
200.782410	1306.984863	1334.402466	1314.860962	28.726431
201.159988	1308.470825	1347.999878	1323.925903	39.098022
201.537537	1319.021973	1351.120605	1334.699829	48.842754
201.915070	1320.730835	1354.910034	1327.120728	18.695267
202.292557	1328.607056	1349.931763	1323.182861	-25.436195
202.670029	1321.696777	1358.328125	1315.381104	-17.241173
203.047485	1324.445923	1354.315674	1318.724731	-19.153797
203.424911	1316.644165	1357.807861	1324.074463	18.050610
203.802292	1313.523438	1351.194946	1324.743164	29.783056
204.179688	1312.409058	1339.603638	1325.560547	48.360699
204.557037	1314.340820	1338.266357	1320.507813	25.775774
204.934357	1311.665894	1337.300415	1325.560547	54.202896
205.311661	1305.201538	1348.891724	1317.758667	28.741304
205.688934	1300.371948	1336.185913	1316.941284	46.265015
206.066177	1294.873535	1337.968994	1308.099365	30.689613
206.443390	1302.229492	1342.129883	1315.306763	32.774792
206.820587	1311.814575	1350.749146	1313.003296	3.053124
207.197769	1314.340820	1357.807861	1321.919556	17.435591
207.574921	1309.808350	1355.132935	1316.272583	14.262091
207.952042	1303.566895	1349.931763	1325.486206	47.275692
208.329147	1304.681519	1337.448853	1322.885620	55.555637
208.706223	1313.077759	1336.111450	1331.058960	78.064781
209.083267	1313.077759	1348.148438	1323.405762	29.449110
209.460297	1318.798950	1357.064819	1319.764893	2.524292
209.837280	1305.944580	1354.687134	1315.306763	19.207411
210.214264	1301.635010	1349.783203	1318.278809	34.567856
210.591217	1299.034546	1337.449097	1312.780396	35.782925
210.968124	1302.378052	1341.387085	1308.990967	16.952267
211.345016	1308.842407	1343.096069	1306.018921	-8.242874
211.721893	1307.505005	1352.532593	1303.046875	-9.900886
212.098724	1305.573120	1352.086670	1306.241821	1.437648
212.475555	1302.675415	1353.349731	1309.139648	12.756430
212.852356	1304.161377	1352.458130	1311.814453	15.845943
213.229126	1305.350220	1356.098999	1317.535767	24.011507
213.605865	1304.458496	1352.681030	1316.421265	24.807425
213.982590	1309.362549	1356.173218	1325.040405	33.492058
214.359283	1309.659668	1347.479858	1326.452148	44.400837
214.735931	1311.220093	1341.461304	1324.669067	44.472340
215.112579	1301.189331	1335.740112	1319.170532	52.042820
215.489197	1299.034546	1342.055786	1310.997192	27.806374
215.865799	1299.703247	1345.102173	1313.820801	31.096668
216.242355	1297.325562	1344.582153	1314.489502	36.320732
216.618896	1293.758911	1341.164185	1316.495728	47.962631
216.995407	1295.319336	1343.764771	1315.975464	42.637924
217.371902	1300.148926	1345.770874	1317.981567	39.087856
217.748367	1297.028198	1343.616089	1313.523560	35.406971
218.124802	1300.074585	1346.142456	1315.975464	34.516201
218.501236	1296.433960	1348.074219	1321.845337	49.208462
218.877609	1302.303711	1352.755371	1325.411987	45.802807
219.253983	1296.136719	1351.938110	1326.972290	55.259502
219.630295	1302.155151	1357.807983	1317.387207	27.369776
220.006592	1306.910522	1352.903931	1316.198364	20.193853
220.382889	1313.597778	1354.241333	1316.495605	7.129857
220.759140	1318.278809	1349.931763	1324.891724	20.891937
221.135391	1308.470825	1357.956421	1321.548218	26.426664
221.511581	1302.749634	1357.064819	1307.356323	8.481402
221.887772	1295.913818	1357.287720	1301.040649	8.353438
222.263931	1305.944702	1350.080444	1308.842407	6.565439
222.640060	1308.025024	1354.018555	1323.703003	34.087357
223.016159	1309.436890	1356.619019	1323.925903	30.708691
223.392212	1306.464722	1357.510742	1316.198364	19.068367
223.768265	1308.470825	1349.411743	1313.820679	13.067253
224.144302	1308.025146	1348.520020	1317.758789	24.036728
224.520294	1308.470947	1357.584961	1323.703003	31.013664
224.896286	1302.006714	1370.885254	1321.325317	28.047348
225.272217	1302.006714	1379.801636	1329.647217	35.529957
225.648148	1308.768188	1379.801392	1329.721558	29.497993
226.024048	1314.043579	1373.485718	1333.436646	32.625114
226.399902	1316.569824	1362.711914	1322.068359	11.916528
226.775772	1310.774292	1361.597290	1322.365601	22.807211
227.151581	1307.356323	1365.683960	1323.257202	27.261312
227.527374	1293.164551	1384.631226	1331.133301	41.511021
227.903137	1293.015991	1398.674438	1329.944458	34.950794
228.278870	1296.731079	1412.197388	1330.835938	29.536633
228.654572	1310.031250	1420.890991	1334.476929	22.050997
229.030273	1309.585327	1435.454102	1333.585205	19.067381
229.405930	1306.910522	1448.977417	1329.275635	15.742662
229.781555	1302.823853	1453.138306	1331.727661	19.228895
230.157181	1296.879761	1451.578003	1344.879272	31.027832
230.532761	1295.839478	1445.410767	1353.498413	38.549469
230.908325	1295.913696	1437.311890	1349.783203	38.097733
231.283859	1301.040527	1427.503906	1345.250854	34.958996
231.659332	1296.136719	1414.277954	1338.637817	35.974823
232.034821	1297.845581	1410.934204	1332.619263	30.749054
232.410263	1298.514282	1407.590820	1333.733765	32.288780
232.785690	1299.331665	1412.940552	1332.916504	29.561806
233.161087	1296.433960	1418.364746	1345.399414	40.158401
233.536469	1301.114868	1417.473022	1343.913452	36.781765
233.911804	1303.789917	1419.256348	1349.783325	39.832710
234.287140	1300.594849	1418.438965	1339.455078	32.975960
234.662430	1303.789917	1429.955933	1341.684204	30.035257
235.037704	1302.006714	1435.008423	1341.238281	29.497040
235.412933	1312.854858	1436.717407	1343.095825	24.414940
235.788162	1297.251343	1435.082886	1342.798828	33.045765
236.163345	1301.858032	1437.088867	1341.981445	29.670313
236.538513	1295.616577	1442.884644	1348.520142	35.923309
236.913635	1300.000366	1450.166138	1354.018433	35.972290
237.288742	1291.975708	1453.212524	1364.049438	44.700542
237.663834	1286.997437	1458.785522	1372.148438	49.567467
238.038879	1291.529907	1458.116699	1368.581909	46.253368
238.413910	1300.966309	1468.964844	1370.439453	41.353424
238.788910	1313.597778	1468.370239	1364.049316	32.597233
239.163879	1314.786621	1478.104004	1364.123657	30.209299
239.538834	1312.334717	1478.772583	1359.145386	28.125011
239.913757	1305.721802	1495.936646	1367.318726	32.382816
240.288651	1300.223267	1508.345215	1379.950195	38.307796
240.663528	1298.960327	1529.298706	1394.885132	41.645168
241.038361	1301.040649	1541.484253	1403.578491	42.645279
241.413177	1309.288208	1571.651245	1420.668091	42.452583
241.787979	1310.551392	1610.140015	1432.407837	40.674591
242.162735	1307.950806	1656.876343	1456.481812	42.568111
242.537476	1300.074707	1675.006226	1471.491089	45.719383
242.912170	1300.074829	1676.789429	1491.626953	50.848076
243.286865	1295.913696	1665.941284	1486.871704	51.606426
243.661514	1297.771362	1655.390503	1479.589966	50.841408
244.036148	1296.359741	1646.994141	1463.763672	47.743156
244.410751	1299.257324	1641.421509	1461.460083	47.404949
244.785339	1299.257446	1636.963257	1461.980347	48.184811
245.159882	1297.325562	1650.189087	1466.586914	47.967937
245.534378	1295.170776	1678.275513	1487.540405	50.213326
245.908890	1290.563965	1730.956055	1517.707397	51.577545
246.283356	1291.827148	1793.964844	1564.146851	54.232079
246.657791	1297.102539	1862.992188	1596.245483	52.862415
247.032196	1304.458618	1920.130859	1624.034668	51.906849
247.406586	1302.898071	1966.570190	1637.706177	50.447819
247.780960	1307.876587	1974.817749	1652.195313	51.626553
248.155289	1313.226440	1975.709351	1655.093140	51.603851
248.529602	1318.056030	1928.229858	1636.220215	52.143204
248.903870	1310.105591	1877.183960	1606.201782	52.214333
249.278122	1302.155151	1814.621094	1578.709961	53.965500
249.652344	1301.040649	1775.983765	1557.830688	54.067535
250.026550	1304.087036	1756.293457	1546.685425	53.647709
250.400711	1299.851807	1741.878540	1540.146851	54.362106
250.774857	1297.325562	1741.061523	1541.409790	55.006638
251.148987	1304.978638	1754.658691	1549.286133	54.329182
251.523071	1309.882690	1771.896973	1549.806030	51.929855
251.897125	1315.455444	1790.844116	1561.620239	51.781796
252.271164	1306.464722	1793.741821	1557.236328	51.463860
252.645187	1298.662964	1794.931030	1565.038208	53.675678
253.019165	1299.851807	1788.912476	1563.552124	53.919754
253.393112	1298.737183	1778.287109	1563.923462	55.298992
253.767044	1297.697144	1760.008667	1550.994995	54.789433
254.140930	1299.257324	1736.677734	1541.187134	55.308304
254.514801	1303.418335	1718.250610	1534.499878	55.704811
254.888657	1312.631958	1716.095703	1539.552368	56.243073
255.262466	1300.966431	1722.931274	1539.478149	56.524075
255.636276	1295.245117	1747.228516	1549.657593	56.288013
256.010010	1289.746704	1772.268555	1560.282837	56.067127
256.383759	1302.303711	1798.571655	1581.979126	56.355728
256.757446	1302.526733	1826.509399	1599.960449	56.764038
257.131134	1311.442993	1860.763062	1618.387573	55.877182
257.504791	1309.882690	1901.332397	1645.433716	56.733654
257.878418	1315.752563	1956.539063	1687.414673	58.000927
258.252014	1311.443115	2031.956421	1737.346191	59.111065
258.625580	1306.984863	2133.454102	1790.695435	58.527355
258.999115	1300.520508	2256.276367	1853.778442	57.886951
259.372650	1303.269653	2378.578857	1933.579712	58.616634
259.746124	1300.000366	2486.614990	2010.185913	59.849720
260.119598	1304.235718	2543.679443	2053.429932	60.446003
260.493042	1300.074707	2545.462646	2048.302979	60.079937
260.866425	1304.904419	2502.367188	2028.984375	60.467846
261.239838	1308.025024	2416.175781	1971.771362	59.896755
261.613159	1309.882690	2321.439941	1919.536499	60.268837
261.986511	1304.087158	2227.075439	1860.688843	60.304306
262.359802	1299.554565	2161.020508	1825.097656	61.005672
262.733063	1297.102661	2133.156982	1807.933716	61.100224
263.106293	1298.142822	2118.519287	1789.878296	59.940224
263.479523	1302.303711	2111.980469	1792.033081	60.484554
263.852692	1305.127319	2108.339600	1788.838013	60.222023
264.225861	1301.932251	2105.144775	1792.701782	61.100830
264.598969	1298.291504	2114.061279	1790.472656	60.333340
264.972076	1299.777466	2131.002197	1795.971069	59.694279
265.345154	1303.864258	2167.113037	1819.079224	59.683254
265.718201	1300.223267	2210.728760	1852.069702	60.608799
266.091217	1305.573120	2258.728516	1892.044434	61.529453
266.464203	1305.424438	2308.808350	1921.765503	61.426247
266.837158	1313.151978	2347.966064	1957.876587	62.303425
267.210114	1304.235718	2380.213379	1974.594727	62.302315
267.583038	1310.402832	2390.541504	1990.272583	62.942822
267.955902	1301.783569	2405.402100	1985.517212	61.953804
268.328766	1302.749512	2389.129883	1996.588379	63.867027
268.701569	1293.981812	2403.024170	2002.532593	63.888523
269.074371	1292.272949	2419.742432	2010.705933	63.720837
269.447144	1295.170776	2463.878174	2035.597168	63.354301
269.819885	1302.229614	2532.608398	2065.689697	62.050816
270.192596	1308.768066	2613.747070	2121.119873	62.250183
270.565277	1311.442993	2737.089111	2183.831299	61.192486
270.937927	1304.309937	2847.577393	2250.183594	61.290325
271.310577	1307.653442	2934.437500	2317.947510	62.103760
271.683136	1304.458496	2992.616455	2366.392822	62.904915
272.055725	1313.151978	2996.406006	2388.312500	63.873932
272.428284	1309.437012	2981.619873	2380.956299	64.079071
272.800812	1299.331665	2935.626221	2336.226318	63.368458
273.173279	1293.981812	2876.704102	2294.765381	63.231785
273.545776	1289.598022	2841.781982	2263.781006	62.762081
273.918152	1304.012817	2807.454102	2246.839844	62.711262
274.290558	1303.715698	2797.943359	2254.270264	63.615108
274.662964	1307.430786	2797.794922	2250.629395	63.286453
275.035278	1300.743408	2814.810303	2267.793457	63.871025
275.407593	1303.269653	2844.976807	2282.802490	63.535595
275.779907	1307.430664	2886.363525	2303.978760	63.115292
276.152161	1311.220215	2931.316650	2334.145752	63.139793
276.524384	1308.322388	2975.526611	2364.535400	63.352348
276.896606	1306.316162	2998.634766	2392.770508	64.199158
277.268799	1304.830200	3004.430664	2397.377197	64.282578
277.640930	1307.430664	3003.984619	2402.429932	64.542557
278.013031	1306.093140	3007.253906	2399.234619	64.258560
278.385162	1302.006470	3010.968994	2410.677490	64.873924
278.757233	1295.839478	3017.210693	2408.076904	64.613457
279.129272	1299.851807	3044.033936	2430.590576	64.829170
279.501282	1301.932251	3075.240967	2447.680176	64.610741
279.873230	1305.052979	3142.262451	2487.506592	64.361397
280.245178	1300.297607	3229.121826	2548.211914	64.698189
280.617126	1299.034546	3337.752197	2626.601074	65.117722
280.988983	1301.412231	3441.033203	2703.727295	65.540344
281.360870	1298.440063	3537.775391	2770.153564	65.720993
281.732697	1297.028320	3619.954346	2810.797607	65.166489
282.104492	1296.136597	3657.179932	2828.704346	64.910614
282.476288	1297.325317	3658.443359	2826.326904	64.757523
282.848053	1299.851685	3638.975586	2825.063721	65.204414
283.219757	1300.891968	3636.969482	2841.930420	65.966919
283.591461	1302.452393	3626.269775	2846.908936	66.462044
283.963135	1295.839478	3662.678467	2855.453369	65.894386
284.334747	1295.467896	3707.408447	2889.558594	66.091629
284.706360	1293.758911	3793.897217	2950.635498	66.271400
285.077942	1301.040649	3872.806396	3027.984375	67.150124
285.449524	1294.204834	3949.263672	3078.138672	67.189995
285.821014	1294.427734	3972.817627	3082.076904	66.743423
286.192535	1291.604248	4002.835938	3094.039795	66.480324
286.563995	1296.359497	4000.607422	3102.510010	66.789383
286.935425	1295.096558	3988.124268	3103.253174	67.142143
287.306824	1296.285278	3911.889648	3057.631104	67.339912
287.678223	1298.662964	3856.534180	2998.634766	66.460419
288.049561	1297.696899	3808.534424	2977.087158	66.885666
288.420898	1299.926147	3807.197266	2984.368896	67.182320
288.792145	1302.155151	3832.608643	2997.594727	67.001411
289.163452	1306.761841	3916.496826	3052.132813	66.879242
289.534668	1297.696899	4027.579102	3114.918701	66.567772
289.905914	1293.684692	4122.537598	3186.249023	66.902176
290.277039	1295.988159	4208.877441	3242.347656	66.818863
290.648193	1300.594849	4249.224121	3274.966553	66.958961
291.019318	1296.508179	4258.585938	3293.468018	67.417542
291.390381	1291.975708	4208.431641	3269.988281	67.822472
291.761475	1296.582397	4126.996094	3241.307373	68.708153
292.132507	1305.870239	4090.067627	3212.849609	68.492966
292.503510	1305.127319	4095.565674	3202.447266	67.993614
292.874481	1309.065308	4156.419434	3229.419189	67.443451
293.245422	1304.904297	4233.174316	3279.053467	67.416908
293.616364	1302.898193	4345.297363	3372.229248	68.016418
293.987213	1296.582520	4482.312012	3447.646240	67.521858
294.358093	1288.632202	4586.261719	3539.113037	68.245415
294.728943	1293.238892	4688.427246	3592.090820	67.709114
295.099731	1297.399780	4763.918945	3669.514404	68.429298
295.470490	1302.006714	4871.286621	3731.333984	68.062111
295.841248	1306.018921	4955.100098	3806.379639	68.520287
296.211975	1302.823853	5066.331543	3870.205811	68.217789
296.582642	1301.709351	5171.172363	3952.087158	68.494720
296.953308	1296.508179	5220.955078	3993.919922	68.733551
297.323883	1291.901489	5207.803223	3985.449219	68.784866
297.694519	1294.724976	5113.513184	3909.586670	68.473602
298.065063	1293.758911	5003.545410	3817.302490	68.023949
298.435608	1300.817749	4873.887207	3721.303467	67.742485
298.806122	1295.839478	4701.059082	3619.434326	68.236267
299.176575	1297.771362	4553.122559	3516.970459	68.170815
299.547028	1290.786987	4430.819824	3444.822998	68.599159
299.917450	1298.142822	4389.582031	3409.380615	68.293037
300.287872	1299.851929	4382.077637	3406.185547	68.338074
300.658234	1305.796021	4389.433105	3421.268799	68.603165
301.028564	1299.331665	4372.121094	3414.878906	68.847778
301.398865	1299.851807	4353.173828	3402.173096	68.853569
301.769135	1297.251099	4301.013184	3364.650391	68.827003
302.139374	1298.365845	4275.081543	3353.579102	69.042984
302.509583	1288.632202	4232.654297	3329.579346	69.325134
302.879791	1284.322632	4192.308105	3297.777588	69.238831
303.249939	1287.889038	4135.317871	3257.134033	69.158714
303.620087	1289.746460	4085.089111	3228.304688	69.349571
303.990173	1295.244995	4064.729736	3207.871338	69.060722
304.360260	1297.696899	4069.262451	3212.329346	69.081268
304.730286	1305.350220	4063.912842	3219.462158	69.388023
305.100281	1308.842407	4046.749268	3228.973389	70.131348
305.470276	1302.898315	4046.303467	3227.784424	70.164116
305.840179	1299.480347	4073.498047	3242.719482	70.051437
306.210144	1295.468018	4113.621582	3262.707031	69.805954
306.579987	1295.913696	4158.054688	3290.198486	69.678070
306.949890	1295.988159	4187.181641	3329.430420	70.332283
307.319702	1296.359497	4263.118652	3383.745361	70.359123
307.689484	1302.898193	4344.851563	3444.970947	70.417671
308.059265	1306.613403	4446.645996	3515.633057	70.350204
308.429016	1304.978638	4526.967285	3587.483643	70.841492
308.798737	1304.830078	4600.007324	3646.703125	71.069717
309.168396	1302.898315	4644.812012	3679.842529	71.125252
309.538055	1306.167603	4654.693848	3699.606689	71.477379
309.907684	1306.018921	4653.431152	3719.520264	72.100517
310.277313	1298.737183	4667.474121	3731.408203	72.213150
310.646851	1296.731079	4694.148926	3730.665283	71.640701
311.016388	1298.960083	4679.288574	3718.628174	71.580849
311.385895	1310.477173	4629.653809	3680.585205	71.406502
311.755371	1315.827026	4560.478027	3649.898438	71.935974
312.124817	1306.316284	4514.484863	3617.725342	72.047623
312.494232	1306.390503	4473.617676	3602.864502	72.507401
312.863617	1304.235718	4458.163086	3583.397461	72.264244
313.232971	1307.653564	4471.686523	3606.282471	72.648705
313.602295	1300.743530	4547.920898	3656.362549	72.543594
313.971619	1299.034546	4624.750000	3735.123779	73.250084
314.340820	1297.919922	4648.154785	3764.027344	73.609985
314.710083	1301.263550	4631.288574	3759.123291	73.809052
315.079285	1299.331665	4575.561523	3712.832764	73.667023
315.448486	1303.418457	4512.775879	3663.272705	73.530426
315.817596	1305.573120	4390.770508	3588.524414	73.996925
316.186707	1304.755859	4286.747559	3516.079102	74.155914
316.555786	1304.458618	4211.032227	3446.160156	73.684753
316.924866	1303.492676	4186.289551	3423.572266	73.542458
317.293884	1307.282104	4173.286621	3426.395752	73.939651
317.662872	1306.464722	4185.025879	3444.302734	74.267586
318.031830	1307.653687	4208.877441	3475.287109	74.714447
