Jaz Data File
++++++++++++++++++++++++++++++++++++
Date: Fri Jun 04 13:38:17 2021
User: jaz
Dark Spectrum Present: Yes
Reference Spectrum Present: Yes
Processed Spectrum Present: Yes
Spectrometers: JAZA3586
Integration Time (usec): 30700 (JAZA3586)
Spectra Averaged: 10 (JAZA3586)
Boxcar Smoothing: 1 (JAZA3586)
Correct for Electrical Dark: No (JAZA3586)
Strobe/Lamp Enabled: Yes (JAZA3586)
Correct for Detector Non-linearity: No (JAZA3586)
Correct for Stray Light: No (JAZA3586)
Number of Pixels in Processed Spectrum: 2048
>>>>>Begin Processed Spectral Data<<<<<
W	D	R	S	P
191.335022	0.000000	0.000000	0.000000	0.000000
191.713211	290.375031	294.164459	287.774414	-68.628197
192.091385	586.397034	587.808777	590.929504	321.054901
192.469528	886.431458	888.140381	892.895752	378.267090
192.847641	899.657288	900.549011	903.520996	433.285431
193.225739	907.161926	913.180420	907.607727	7.407182
193.603790	918.233093	923.137024	912.214539	-122.729195
193.981842	924.771729	924.102966	912.660339	1811.015747
194.359863	931.310242	928.486816	914.369324	600.013000
194.737854	934.653809	925.366150	921.428040	142.401535
195.115829	935.174011	929.155518	931.013123	69.135048
195.493774	934.951111	928.561096	930.790100	65.117393
195.871704	940.003723	937.700378	925.291748	638.722229
196.249603	938.814880	935.991394	923.805664	531.584534
196.627457	935.025391	938.889160	924.994568	-259.612335
197.005310	920.982178	929.972900	931.013123	111.569954
197.383133	924.548767	937.551758	932.870605	63.999416
197.760910	929.972839	945.502136	931.384521	9.090445
198.138687	931.756165	951.372070	921.873840	-50.379139
198.516449	930.195801	942.307129	928.635315	-12.884515
198.894180	923.359863	927.223694	930.418701	182.690155
199.271866	918.010193	920.759338	935.174072	624.335083
199.649536	919.273254	924.548828	931.087402	223.940536
200.027191	918.976074	921.428040	923.211243	172.725464
200.404816	923.805725	929.304016	913.849182	-181.084320
200.782410	924.177246	933.687988	909.390930	-155.469635
201.159988	923.582764	952.189270	914.220703	-32.727032
201.537537	923.731445	956.944763	918.307312	-16.331200
201.915070	915.632385	959.916809	921.799561	13.926286
202.292557	918.010071	958.579407	925.440430	18.315210
202.670029	919.793457	961.402893	927.298035	18.035759
203.047485	918.530273	956.944641	927.669495	23.791153
203.424911	913.403320	959.619629	922.096680	18.810156
203.802292	911.917297	958.505066	924.177185	26.315680
204.179688	908.647949	966.529785	919.050293	17.971689
204.557037	911.397217	959.619629	919.198975	16.178698
204.934357	906.641785	962.443115	918.010071	20.372787
205.311661	908.722351	953.303894	915.186707	14.500072
205.688934	910.654114	957.687744	911.322815	1.421751
206.066177	911.397156	956.870422	901.886414	-20.915018
206.443390	906.418945	960.288330	900.028870	-11.862165
206.820587	905.304382	957.984924	896.610840	-16.502378
207.197769	904.932861	956.573242	901.366211	-6.906708
207.574921	910.059753	965.638184	902.778015	-13.101734
207.952042	908.350769	968.610291	904.487061	-6.411781
208.329147	904.412781	961.477234	909.242432	8.463502
208.706223	918.233093	968.164490	916.821289	-2.827488
209.083267	914.666504	964.226379	918.232971	7.196280
209.460297	920.164856	964.375000	912.140137	-18.151308
209.837280	904.784363	950.108887	905.230042	0.983306
210.214264	907.830750	954.492737	910.059753	4.776916
210.591217	904.858582	955.161438	909.688232	9.601147
210.968124	904.709961	961.625793	909.911133	9.138357
211.345016	901.514893	961.848694	910.356934	14.655203
211.721893	901.737793	969.056152	909.316711	11.258323
212.098724	902.778076	963.409119	912.363098	15.808770
212.475555	905.378723	967.941589	905.155762	-0.356380
212.852356	903.223938	969.947754	910.505554	10.913069
213.229126	908.425110	969.056152	901.737793	-11.029527
213.605865	907.682068	963.037598	905.601563	-3.758442
213.982590	908.870911	955.310059	901.886414	-15.040106
214.359283	904.561340	954.789978	903.669739	-1.775086
214.735931	907.087646	952.783752	896.833801	-22.439211
215.112579	912.214539	956.350281	894.679016	-39.730888
215.489197	902.406555	959.693909	897.502625	-8.560232
215.865799	899.508789	964.895203	898.542786	-1.477376
216.242355	891.632629	965.415283	897.948425	8.560001
216.618896	894.010315	957.464844	895.273438	1.990595
216.995407	896.239441	954.269836	894.010315	-3.841308
217.371902	899.954529	948.919983	894.233215	-11.684387
217.748367	901.886414	949.811707	897.874084	-8.372049
218.124802	895.942200	947.359680	899.657410	7.225578
218.501236	895.645020	954.566956	898.468506	4.791910
218.877609	905.527344	964.226379	901.291992	-7.215368
219.253983	911.620117	975.371826	903.966858	-12.004790
219.630295	911.620117	978.789734	903.892578	-11.504516
220.006592	906.344543	971.136536	898.765686	-11.697213
220.382889	901.291992	971.582336	904.338379	4.334004
220.759140	905.081482	967.198547	912.585999	12.081247
221.135391	903.372559	971.136536	906.121643	4.056852
221.511581	909.242432	961.997314	902.406555	-12.957808
221.887772	907.236267	960.808411	894.456238	-23.855736
222.263931	913.774902	963.409119	902.332214	-23.054031
222.640060	912.065918	968.090149	901.069092	-19.628696
223.016159	910.951416	971.210754	909.465332	-2.466147
223.392212	906.790344	971.730957	908.127869	2.059612
223.768265	902.778015	978.566833	908.350769	7.353003
224.144302	906.567444	982.876404	910.802734	5.550188
224.520294	910.579834	988.300476	912.883240	2.963699
224.896286	907.459167	985.551270	906.047363	-1.807871
225.272217	904.487061	988.151855	901.069092	-4.085313
225.648148	901.143372	988.671936	902.034973	1.018641
226.024048	908.350769	988.077637	907.682068	-0.838740
226.399902	910.059753	987.408875	896.536621	-17.483240
226.775772	905.527344	995.359314	894.158936	-12.655191
227.151581	902.852356	1007.024719	895.942200	-6.633387
227.527374	894.902039	1014.380676	905.230042	8.644225
227.903137	896.165039	1030.504395	900.623291	3.318649
228.278870	898.988586	1044.919067	907.384827	5.753589
228.654572	896.016418	1060.299683	909.316711	8.095951
229.030273	893.415833	1062.454468	914.369324	12.395681
229.405930	895.793518	1063.569214	905.007141	5.491632
229.781555	903.892578	1068.398804	905.675842	1.084010
230.157181	913.997742	1072.931274	909.762512	-2.664780
230.532761	913.849121	1073.599976	910.951355	-1.813928
230.908325	915.409485	1064.312134	918.678772	2.195587
231.283859	911.471497	1056.658813	914.815125	2.302975
231.659332	911.694397	1052.052124	916.301208	3.282193
232.034821	903.892578	1049.377319	903.521179	-0.255284
232.410263	898.096985	1045.439331	901.663574	2.420614
232.785690	888.883484	1039.643677	895.273438	4.238489
233.161087	889.329285	1041.947144	900.177429	7.108044
233.536469	900.846191	1047.148193	898.542786	-1.574418
233.911804	901.143372	1060.522827	910.059753	5.594436
234.287140	901.886414	1064.535034	907.459045	3.426178
234.662430	892.152771	1061.414429	906.121582	8.252791
235.037704	898.394226	1063.569214	900.400330	1.214532
235.412933	906.938965	1061.785889	900.400391	-4.222605
235.788162	906.938965	1067.878540	905.304382	-1.015650
236.163345	908.796570	1060.745605	904.487061	-2.836154
236.538513	901.069153	1064.312134	905.973083	3.004068
236.913635	895.867920	1073.377197	906.047363	5.734598
237.288742	892.524353	1080.138672	910.133972	9.386074
237.663834	895.570740	1092.250000	910.133972	7.404559
238.038879	900.251770	1087.866089	911.842957	6.178199
238.413910	903.818298	1096.039429	918.232971	7.499005
238.788910	905.155701	1097.971313	918.381592	6.859346
239.163879	907.384766	1111.345825	915.706726	4.080171
239.538834	905.898743	1119.147461	903.521057	-1.114982
239.913757	906.047363	1138.763550	907.459045	0.606611
240.288651	909.539551	1160.014038	911.248535	0.682299
240.663528	906.121643	1188.323364	919.941895	4.897295
241.038361	900.400391	1210.094116	917.192810	5.422266
241.413177	897.279602	1237.734741	918.158691	6.132699
241.787979	901.514893	1268.644653	914.369324	3.501332
242.162735	907.904968	1314.638062	913.403320	1.351833
242.537476	909.019470	1344.582031	915.706726	1.535315
242.912170	906.938965	1363.380493	915.335205	1.839500
243.286865	903.521057	1361.745850	916.672668	2.870122
243.661514	903.372498	1346.811035	913.626221	2.312321
244.036148	910.134033	1335.591309	916.598328	1.519376
244.410751	911.991638	1318.427368	920.164856	2.010950
244.785339	908.127930	1327.863892	923.582825	3.682052
245.159882	905.675964	1339.157959	922.542542	3.890952
245.534378	906.641846	1374.600220	918.158691	2.461083
245.908890	908.870850	1432.853638	915.781006	1.318775
246.283356	909.242371	1516.518555	910.282654	0.171303
246.657791	908.053528	1598.623047	913.180481	0.742424
247.032196	910.282654	1666.907227	920.536377	1.355193
247.406586	909.019531	1703.761353	924.920227	2.000737
247.780960	909.985413	1715.204102	924.845947	1.845528
248.155289	910.505554	1695.513794	921.650940	1.419779
248.529602	906.195984	1655.018677	923.508545	2.311971
248.903870	905.898743	1599.588989	921.576660	2.260075
249.278122	910.728455	1532.493652	908.499329	-0.358516
249.652344	910.282532	1478.624023	901.886414	-1.477302
250.026550	914.517883	1438.946411	905.601563	-1.700197
250.400711	908.945129	1419.033325	920.536377	2.272401
250.774857	910.431213	1411.454468	921.873840	2.283851
251.148987	905.304382	1426.017944	917.341370	2.311633
251.523071	902.257996	1457.224976	903.000977	0.133878
251.897125	899.805969	1495.490845	908.127869	1.397030
252.271164	896.313782	1516.741577	911.768738	2.491016
252.645187	899.360168	1517.484497	915.632385	2.632515
253.019165	906.790466	1494.822266	918.307373	1.958552
253.393112	907.904968	1476.469360	922.096863	2.496093
253.767044	903.372498	1455.664551	929.601379	4.749096
254.140930	894.976257	1439.243774	927.743835	6.020491
254.514801	902.852356	1423.268555	927.297913	4.697309
254.888657	908.499329	1417.844604	928.189636	3.865808
255.262466	909.539551	1426.835083	926.777832	3.332386
255.636276	903.149597	1434.934204	917.490051	2.696666
256.010010	904.858582	1458.636719	912.288818	1.341735
256.383759	909.539551	1485.608765	914.889404	0.928682
256.757446	915.335205	1529.595825	918.901794	0.580631
257.131134	907.830750	1568.827759	918.158691	1.562479
257.504791	910.356934	1631.464844	917.267090	0.958269
257.878418	908.053528	1711.117554	915.855286	0.971499
258.252014	911.248596	1809.196899	925.068909	1.539099
258.625580	909.019531	1926.372437	927.595215	1.825884
258.999115	901.886414	2067.621826	936.883057	3.002109
259.372650	904.932800	2236.586182	936.660156	2.382554
259.746124	900.549011	2375.755127	944.833435	3.001915
260.119598	897.799805	2457.636719	942.901550	2.891440
260.493042	900.697571	2459.940186	944.536194	2.811533
260.866425	902.332275	2388.312256	941.192566	2.615129
261.239838	908.870911	2272.251709	944.164612	2.588690
261.613159	900.697571	2137.837891	936.139954	2.864863
261.986511	903.966980	2037.157715	931.161621	2.399829
262.359802	900.697571	1970.285156	929.081238	2.653702
262.733063	897.502625	1942.718872	934.876892	3.575745
263.106293	896.239441	1929.864624	937.180237	3.960894
263.479523	907.682129	1914.038086	937.180237	2.931180
263.852692	912.957581	1896.279663	940.821106	2.833611
264.225861	911.917297	1879.487305	942.232727	3.133151
264.598969	900.697571	1885.728882	938.740662	3.862120
264.972076	894.010315	1907.573853	933.390808	3.885350
265.345154	901.143372	1958.173828	933.687988	3.078872
265.718201	903.149597	2023.040161	936.288635	2.959132
266.091217	913.031921	2088.054932	935.099792	1.878080
266.464203	906.270325	2145.565430	934.430969	2.272311
266.837158	908.276428	2190.146973	936.882996	2.231627
267.210114	903.818298	2228.784424	942.975891	2.955366
267.583038	908.647949	2253.155762	942.752930	2.536614
267.955902	911.397156	2267.644775	940.895325	2.174984
268.328766	912.511719	2270.022461	935.322571	1.680344
268.701569	906.716125	2277.526855	933.613586	1.962157
269.074371	906.939026	2296.399658	932.647705	1.850263
269.447144	910.505554	2342.541992	933.390686	1.598083
269.819885	911.620117	2416.101563	934.208069	1.501378
270.192596	911.843018	2523.320313	935.991394	1.498524
270.565277	907.384766	2670.588135	949.663086	2.397813
270.937927	908.202148	2812.358154	958.728027	2.653453
271.310577	904.041199	2922.845947	964.746582	3.006996
271.683136	904.784180	2979.093018	955.830261	2.460872
272.055725	901.589172	2992.021729	961.254333	2.854202
272.428284	901.663513	2964.827148	967.941589	3.212449
272.800812	901.737793	2915.787354	970.913757	3.434670
273.173279	901.886414	2842.376221	962.963379	3.147503
273.545776	900.994812	2804.555908	946.839600	2.408370
273.918152	901.514893	2764.803955	948.028381	2.496311
274.290558	904.487000	2763.021240	948.251282	2.354774
274.662964	905.452942	2738.798096	953.303894	2.610035
275.035278	902.555176	2755.516357	948.177002	2.462104
275.407593	907.236267	2785.460205	944.090332	1.962176
275.779907	906.195984	2853.150391	945.947937	2.041751
276.152161	907.384766	2912.963867	947.879822	2.019120
276.524384	897.056702	2960.666260	953.526855	2.736475
276.896606	899.285828	2994.325439	960.437012	2.918856
277.268799	900.474670	2998.635010	955.384338	2.617039
277.640930	901.217773	3007.253906	956.424622	2.621363
278.013031	904.561340	3017.210693	949.960266	2.148910
278.385162	903.818298	3042.399170	957.167664	2.494615
278.757233	901.069092	3051.984375	957.910645	2.642668
279.129272	899.954590	3071.748779	963.632019	2.932019
279.501282	899.731628	3105.705078	962.443115	2.842803
279.873230	905.378662	3175.475342	954.121277	2.147160
280.245178	911.025696	3283.883057	957.241882	1.947702
280.617126	917.341370	3417.182373	968.535950	2.047913
280.988983	918.233093	3555.756836	980.647278	2.366393
281.360870	914.369324	3686.306641	976.560730	2.243608
281.732697	912.660339	3783.643311	975.669006	2.194672
282.104492	911.917236	3835.803711	975.148926	2.162591
282.476288	914.146423	3831.196533	978.121033	2.193127
282.848053	912.214539	3815.964844	973.662842	2.116170
283.219757	911.620117	3812.769775	976.263489	2.228199
283.591461	909.985413	3805.191406	979.235535	2.391889
283.963135	907.830750	3818.119873	985.328369	2.662884
284.334747	907.087646	3878.601807	989.712219	2.780555
284.706360	900.771912	3982.997314	989.563660	2.880768
285.077942	897.651123	4096.309082	988.597839	2.843277
285.449524	901.737793	4188.444336	984.585449	2.520689
285.821014	900.177429	4207.986328	988.300537	2.664093
286.192535	903.075256	4252.790527	989.786560	2.588617
286.563995	896.536621	4252.790527	991.124023	2.818243
286.935425	898.691406	4246.771973	993.055969	2.818468
287.306824	905.007080	4154.339355	991.124023	2.650297
287.678223	912.957520	4069.114258	990.752441	2.464862
288.049561	915.781006	4006.625244	988.820557	2.363094
288.420898	910.654114	3983.368408	994.913391	2.742177
288.792145	913.626282	4018.959717	997.216858	2.691839
289.163452	912.660339	4134.500488	995.210632	2.562210
289.534668	912.808899	4292.839355	991.792725	2.336778
289.905914	908.870911	4434.980957	992.461426	2.370615
290.277039	914.220703	4534.249512	996.622498	2.276274
290.648193	910.208313	4581.431641	1001.674988	2.491449
291.019318	903.743958	4572.960938	998.479919	2.581912
291.390381	901.886414	4503.784668	993.278748	2.537338
291.761475	905.007141	4411.426758	986.294250	2.318237
292.132507	910.654236	4352.875977	981.390320	2.054954
292.503510	901.143494	4340.616211	982.579163	2.367679
292.874481	905.378662	4400.652832	985.254089	2.285241
293.245422	907.236267	4506.088379	987.706055	2.235985
293.616364	912.734680	4680.476563	994.467590	2.169281
293.987213	910.208313	4840.153809	993.353088	2.115672
294.358093	906.567566	4956.140137	1004.944336	2.429312
294.728943	908.202148	5062.838867	1000.560547	2.223020
295.099731	910.356873	5194.503418	1007.173340	2.259878
295.470490	910.133972	5331.814941	1004.424255	2.132453
295.841248	905.007141	5464.296875	1015.420898	2.421732
296.211975	903.298157	5576.196777	1019.507629	2.486882
296.582642	904.264099	5709.569824	1026.863647	2.551337
296.953308	904.412659	5781.643066	1025.674805	2.486291
297.323883	907.979187	5770.943848	1020.324951	2.310232
297.694519	902.183594	5639.873535	1021.736633	2.523446
298.065063	910.282532	5491.268066	1019.879150	2.392425
298.435608	903.743958	5310.118652	1018.987488	2.615382
298.806122	896.239319	5126.516113	1011.631531	2.727770
299.176575	900.325989	4927.979004	1009.179504	2.702654
299.547028	905.007141	4815.781738	1013.043274	2.762525
299.917450	913.106201	4759.460938	1006.355957	2.424367
300.287872	908.499329	4750.247559	1001.080566	2.409873
300.658234	905.081543	4722.829590	988.300476	2.179791
301.028564	907.384827	4699.052246	988.374817	2.135999
301.398865	906.047424	4647.337891	978.715515	1.942327
301.769135	906.196045	4590.199219	987.854736	2.216575
302.139374	905.452942	4539.079590	989.266418	2.306607
302.509583	895.719299	4489.964844	998.479980	2.859033
302.879791	897.428223	4420.417480	997.068176	2.828279
303.249939	901.366272	4371.897949	1000.560364	2.858181
303.620087	911.471497	4335.117676	999.371582	2.567441
303.990173	910.356934	4337.272949	997.142578	2.532471
304.360260	910.579834	4326.201660	992.684387	2.403795
304.730286	905.229980	4312.530273	1002.715271	2.861071
305.100281	898.914307	4302.053223	1000.634766	2.989019
305.470276	893.118652	4330.659668	1005.241516	3.261717
305.840179	894.456116	4362.906738	1001.897949	3.097690
306.210144	899.657410	4403.848145	1002.492371	2.934628
306.579987	904.338379	4423.314941	1000.411865	2.730154
306.949890	909.836914	4466.262207	996.176575	2.427709
307.319702	908.573730	4555.722656	998.034180	2.452887
307.689484	909.688232	4673.715332	997.737000	2.339217
308.059265	916.152527	4802.630371	990.678223	1.917564
308.429016	918.233093	4897.069336	996.622375	1.970156
308.798737	920.313477	4971.595215	999.445984	1.953271
309.168396	905.675842	5032.746582	1007.990723	2.479116
309.538055	902.406555	5069.823242	1003.681152	2.430153
309.907684	892.524231	5069.674805	1001.006287	2.597035
310.277313	897.131042	5084.312012	1005.018555	2.576614
310.646851	901.143372	5071.829590	1007.619141	2.552956
311.016388	907.830566	5064.473145	1008.510742	2.422151
311.385895	905.007141	4996.263184	1006.207336	2.473573
311.755371	905.675842	4930.431641	1010.071106	2.593828
312.124817	907.310547	4863.855957	1011.260071	2.627280
312.494232	911.322815	4804.934082	1008.956604	2.507538
312.863617	906.864746	4780.265625	1001.972168	2.455398
313.232971	900.251770	4804.339844	1001.674988	2.597872
313.602295	899.360168	4883.323730	1008.956604	2.750940
313.971619	895.645020	4987.792969	1011.631531	2.834368
314.340820	897.874023	5022.641113	1021.959656	3.008307
314.710083	899.360168	5028.213867	1018.987488	2.897350
315.079285	907.607727	4951.162109	1024.485840	2.890480
315.448486	911.620056	4873.218262	1017.501465	2.672694
315.817596	909.390930	4723.201172	1016.089661	2.797694
316.186707	904.784241	4579.054199	1007.247742	2.788677
316.555786	907.087585	4472.949219	1005.241516	2.752601
316.924866	912.808899	4415.884766	1000.486145	2.502865
317.293884	918.530273	4422.126465	994.764832	2.175894
317.662872	914.443665	4445.605957	993.501648	2.238866
318.031830	913.329102	4509.506348	995.507874	2.285170
318.400757	911.248535	4545.097656	1006.133118	2.611132
318.769684	905.007141	4576.229980	1008.585144	2.821349
319.138550	903.521057	4565.084961	999.891785	2.631955
319.507416	901.366272	4539.524902	998.182800	2.661141
319.876190	906.195984	4483.797852	990.232422	2.348960
320.244995	908.499329	4397.160645	1003.012451	2.709152
320.613770	908.425110	4349.161133	994.170410	2.492063
320.982483	910.282654	4342.622559	999.223083	2.591248
321.351166	902.629395	4394.634277	999.148743	2.764009
321.719818	895.867920	4458.237793	1008.659485	3.166195
322.088440	894.084656	4582.694824	1005.836121	3.029636
322.457062	894.902039	4755.596680	1007.693604	2.921535
322.825623	903.372559	4959.111816	1013.489197	2.715082
323.194183	904.264099	5104.968262	1019.061829	2.732821
323.562653	898.914307	5203.567871	1016.907043	2.741051
323.931183	899.211487	5218.577637	1014.157898	2.661187
324.299591	894.827637	5180.014160	1010.739929	2.704953
324.668060	905.081482	5083.271973	1007.321960	2.447004
