Jaz Data File
++++++++++++++++++++++++++++++++++++
Date: Fri Jun 04 12:55:08 2021
User: jaz
Dark Spectrum Present: Yes
Reference Spectrum Present: Yes
Processed Spectrum Present: Yes
Spectrometers: JAZA3586
Integration Time (usec): 40000 (JAZA3586)
Spectra Averaged: 10 (JAZA3586)
Boxcar Smoothing: 1 (JAZA3586)
Correct for Electrical Dark: No (JAZA3586)
Strobe/Lamp Enabled: Yes (JAZA3586)
Correct for Detector Non-linearity: No (JAZA3586)
Correct for Stray Light: No (JAZA3586)
Number of Pixels in Processed Spectrum: 2048
>>>>>Begin Processed Spectral Data<<<<<
W	D	R	S	P
191.335022	0.000000	0.000000	0.000000	0.000000
191.713211	424.640045	428.652374	416.095245	-212.963577
192.091385	846.753845	859.013672	846.456604	-2.424514
192.469528	1283.133667	1284.322388	1271.170898	-1006.356567
192.847641	1300.743530	1286.997437	1282.316284	134.054413
193.225739	1322.068359	1296.508179	1282.539185	154.651398
193.603790	1320.879517	1312.483276	1293.387451	327.433044
193.981842	1316.569946	1320.507935	1301.635132	-379.249847
194.359863	1311.517334	1326.526489	1312.929077	9.405880
194.737854	1320.433716	1328.755615	1314.860962	-66.964928
195.115829	1324.743164	1333.882446	1320.062134	-51.218796
195.493774	1330.464478	1333.882446	1312.780518	-517.382141
195.871704	1333.287964	1328.012573	1313.077637	383.105804
196.249603	1341.015503	1325.783569	1320.210571	136.587601
196.627457	1339.083618	1321.325317	1324.668823	81.172150
197.005310	1337.448975	1324.074585	1331.653442	43.333061
197.383133	1336.260132	1323.703003	1329.870117	50.887547
197.760910	1337.746216	1323.257202	1324.148804	93.846359
198.138687	1332.767944	1327.120972	1318.650391	250.002167
198.516449	1331.504761	1324.891846	1307.207764	367.417358
198.894180	1329.275757	1324.594604	1313.597778	334.917084
199.271866	1323.405762	1314.043579	1312.483276	116.666016
199.649536	1314.786621	1314.340820	1319.319214	-1016.730530
200.027191	1305.350220	1314.266479	1316.792847	128.334381
200.404816	1308.693726	1323.405762	1310.551392	12.626845
200.782410	1306.984863	1334.402466	1308.025146	3.794216
201.159988	1308.470825	1347.999878	1313.969238	13.909802
201.537537	1319.021973	1351.120605	1318.204468	-2.546853
201.915070	1320.730835	1354.910034	1315.529663	-15.217360
202.292557	1328.607056	1349.931763	1309.065308	-91.639000
202.670029	1321.696777	1358.328125	1311.665894	-27.383333
203.047485	1324.445923	1354.315674	1309.288208	-50.746037
203.424911	1316.644165	1357.807861	1307.579224	-22.021690
203.802292	1313.523438	1351.194946	1305.721802	-20.709644
204.179688	1312.409058	1339.603638	1309.139648	-12.022283
204.557037	1314.340820	1338.266357	1312.483276	-7.763855
204.934357	1311.665894	1337.300415	1317.684448	23.478319
205.311661	1305.201538	1348.891724	1319.096191	31.802689
205.688934	1300.371948	1336.185913	1321.548218	59.128525
206.066177	1294.873535	1337.968994	1315.826782	48.620544
206.443390	1302.229492	1342.129883	1313.969360	29.422941
206.820587	1311.814575	1350.749146	1308.991089	-7.251875
207.197769	1314.340820	1357.807861	1310.774292	-8.205132
207.574921	1309.808350	1355.132935	1313.374878	7.868860
207.952042	1303.566895	1349.931763	1315.827026	26.442719
208.329147	1304.681519	1337.448853	1310.254150	17.006668
208.706223	1313.077759	1336.111450	1318.353149	22.902931
209.083267	1313.077759	1348.148438	1310.254272	-8.050846
209.460297	1318.798950	1357.064819	1312.631836	-16.116488
209.837280	1305.944580	1354.687134	1306.018921	0.152517
210.214264	1301.635010	1349.783203	1302.823853	2.469133
210.591217	1299.034546	1337.449097	1308.842407	25.531631
210.968124	1302.378052	1341.387085	1308.247925	15.047471
211.345016	1308.842407	1343.096069	1324.446167	45.553551
211.721893	1307.505005	1352.532593	1315.009644	16.666758
212.098724	1305.573120	1352.086670	1311.368774	12.460142
212.475555	1302.675415	1353.349731	1305.944702	6.451566
212.852356	1304.161377	1352.458130	1312.557739	17.384941
213.229126	1305.350220	1356.098999	1313.895142	16.837690
213.605865	1304.458496	1352.681030	1315.232544	22.342352
213.982590	1309.362549	1356.173218	1312.409058	6.508151
214.359283	1309.659668	1347.479858	1312.929077	8.644613
214.735931	1311.220093	1341.461304	1309.065308	-7.125327
215.112579	1301.189331	1335.740112	1307.281982	17.633904
215.489197	1299.034546	1342.055786	1306.241821	16.752831
215.865799	1299.703247	1345.102173	1304.087036	9.656152
216.242355	1297.325562	1344.582153	1302.675171	11.320345
216.618896	1293.758911	1341.164185	1294.947754	2.507828
216.995407	1295.319336	1343.764771	1296.656860	2.760889
217.371902	1300.148926	1345.770874	1298.291382	-4.071601
217.748367	1297.028198	1343.616089	1298.217041	2.551828
218.124802	1300.074585	1346.142456	1298.811523	-2.741741
218.501236	1296.433960	1348.074219	1302.526611	11.798259
218.877609	1302.303711	1352.755371	1312.929077	21.060490
219.253983	1296.136719	1351.938110	1318.724609	40.479080
219.630295	1302.155151	1357.807983	1319.244751	30.707512
220.006592	1306.910522	1352.903931	1308.396606	3.231080
220.382889	1313.597778	1354.241333	1298.960205	-36.014500
220.759140	1318.278809	1349.931763	1300.371948	-56.572479
221.135391	1308.470825	1357.956421	1304.309937	-8.408282
221.511581	1302.749634	1357.064819	1310.700073	14.637600
221.887772	1295.913818	1357.287720	1307.876465	19.491423
222.263931	1305.944702	1350.080444	1309.213867	7.407069
222.640060	1308.025024	1354.018555	1314.489380	14.054923
223.016159	1309.436890	1356.619019	1315.158203	12.126019
223.392212	1306.464722	1357.510742	1319.987915	26.492161
223.768265	1308.470825	1349.411743	1315.975464	18.330412
224.144302	1308.025146	1348.520020	1314.415039	15.779510
224.520294	1308.470947	1357.584961	1311.888794	6.959005
224.896286	1302.006714	1370.885254	1312.631958	15.426059
225.272217	1302.006714	1379.801636	1314.712402	16.332285
225.648148	1308.768188	1379.801392	1322.142700	18.828535
226.024048	1314.043579	1373.485718	1317.015747	5.000103
226.399902	1316.569824	1362.711914	1313.895020	-5.796887
226.775772	1310.774292	1361.597290	1308.173706	-5.116947
227.151581	1307.356323	1365.683960	1318.501831	19.108450
227.527374	1293.164551	1384.631226	1333.659546	44.272949
227.903137	1293.015991	1398.674438	1342.501587	46.835438
228.278870	1296.731079	1412.197388	1342.427368	39.575432
228.654572	1310.031250	1420.890991	1339.455200	26.541601
229.030273	1309.585327	1435.454102	1339.975220	24.144108
229.405930	1306.910522	1448.977417	1344.879028	26.725794
229.781555	1302.823853	1453.138306	1345.919434	28.670284
230.157181	1296.879761	1451.578003	1345.770874	31.604181
230.532761	1295.839478	1445.410767	1341.684204	30.650753
230.908325	1295.913696	1437.311890	1342.278687	32.790371
231.283859	1301.040527	1427.503906	1342.204468	32.550087
231.659332	1296.136719	1414.277954	1343.244751	39.874336
232.034821	1297.845581	1410.934204	1346.736938	43.232780
232.410263	1298.514282	1407.590820	1344.136230	41.825630
232.785690	1299.331665	1412.940552	1340.941284	36.625320
233.161087	1296.433960	1418.364746	1333.659424	30.529995
233.536469	1301.114868	1417.473022	1345.473633	38.122608
233.911804	1303.789917	1419.256348	1351.120605	40.990864
234.287140	1300.594849	1418.438965	1350.972046	42.749012
234.662430	1303.789917	1429.955933	1343.616089	31.566481
235.037704	1302.006714	1435.008423	1347.702759	34.357487
235.412933	1312.854858	1436.717407	1351.640747	31.313652
235.788162	1297.251343	1435.082886	1354.166992	41.293633
236.163345	1301.858032	1437.088867	1351.492188	36.703281
236.538513	1295.616577	1442.884644	1360.482788	44.046352
236.913635	1300.000366	1450.166138	1368.284668	45.472614
237.288742	1291.975708	1453.212524	1373.634399	50.645191
237.663834	1286.997437	1458.785522	1375.492065	51.513832
238.038879	1291.529907	1458.116699	1375.566406	50.446075
238.413910	1300.966309	1468.964844	1376.532227	44.980106
238.788910	1313.597778	1468.370239	1376.829468	40.854614
239.163879	1314.786621	1478.104004	1385.894409	43.539631
239.538834	1312.334717	1478.772583	1389.683960	46.473343
239.913757	1305.721802	1495.936646	1393.770508	46.289082
240.288651	1300.223267	1508.345215	1386.191406	41.306618
240.663528	1298.960327	1529.298706	1396.370972	42.290237
241.038361	1301.040649	1541.484253	1403.801270	42.737930
241.413177	1309.288208	1571.651245	1424.531860	43.925262
241.787979	1310.551392	1610.140015	1444.816406	44.816460
242.162735	1307.950806	1656.876343	1469.484985	46.294743
242.537476	1300.074707	1675.006226	1489.769531	50.594524
242.912170	1300.074829	1676.789429	1505.744629	54.595654
243.286865	1295.913696	1665.941284	1509.905640	57.831348
243.661514	1297.771362	1655.390503	1507.305176	58.591331
244.036148	1296.359741	1646.994141	1494.227661	56.431404
244.410751	1299.257324	1641.421509	1484.642578	54.180202
244.785339	1299.257446	1636.963257	1481.150391	53.861362
245.159882	1297.325562	1650.189087	1488.654907	54.221912
245.534378	1295.170776	1678.275513	1511.837524	56.555485
245.908890	1290.563965	1730.956055	1546.091187	58.022663
246.283356	1291.827148	1793.964844	1590.524048	59.485058
246.657791	1297.102539	1862.992188	1631.464844	59.086132
247.032196	1304.458618	1920.130859	1669.953735	59.365211
247.406586	1302.898071	1966.570190	1696.108276	59.247662
247.780960	1307.876587	1974.817749	1704.281616	59.436283
248.155289	1313.226440	1975.709351	1694.102051	57.492142
248.529602	1318.056030	1928.229858	1662.374634	56.429592
248.903870	1310.105591	1877.183960	1633.248047	56.983738
249.278122	1302.155151	1814.621094	1604.567261	59.011162
249.652344	1301.040649	1775.983765	1585.397095	59.871685
250.026550	1304.087036	1756.293457	1573.657227	59.612198
250.400711	1299.851807	1741.878540	1560.431519	58.951122
250.774857	1297.325562	1741.061523	1557.236328	58.573292
251.148987	1304.978638	1754.658691	1558.276733	56.328514
251.523071	1309.882690	1771.896973	1567.713257	55.805756
251.897125	1315.455444	1790.844116	1582.870728	56.251926
252.271164	1306.464722	1793.741821	1592.604492	58.722187
252.645187	1298.662964	1794.931030	1602.783813	61.281567
253.019165	1299.851807	1788.912476	1606.796387	62.762066
253.393112	1298.737183	1778.287109	1600.332031	62.891232
253.767044	1297.697144	1760.008667	1582.796509	61.668236
254.140930	1299.257324	1736.677734	1557.756470	59.096272
254.514801	1303.418335	1718.250610	1552.183960	59.967762
254.888657	1312.631958	1716.095703	1548.394409	58.434605
255.262466	1300.966431	1722.931274	1557.533691	60.802994
255.636276	1295.245117	1747.228516	1565.929810	59.888195
256.010010	1289.746704	1772.268555	1577.000977	59.531868
256.383759	1302.303711	1798.571655	1597.285645	59.440052
256.757446	1302.526733	1826.509399	1616.530151	59.926300
257.131134	1311.442993	1860.763062	1648.257324	61.314770
257.504791	1309.882690	1901.332397	1674.857788	61.708561
257.878418	1315.752563	1956.539063	1719.290649	62.975433
258.252014	1311.443115	2031.956421	1776.503906	64.545761
258.625580	1306.984863	2133.454102	1842.707642	64.820656
258.999115	1300.520508	2256.276367	1921.245483	64.945976
259.372650	1303.269653	2378.578857	2008.476929	65.581810
259.746124	1300.000366	2486.614990	2091.547119	66.706306
260.119598	1304.235718	2543.679443	2142.741943	67.651817
260.493042	1300.074707	2545.462646	2147.794434	68.068726
260.866425	1304.904419	2502.367188	2120.525391	68.112427
261.239838	1308.025024	2416.175781	2070.222412	68.781021
261.613159	1309.882690	2321.439941	2005.876343	68.804176
261.986511	1304.087158	2227.075439	1946.508423	69.602318
262.359802	1299.554565	2161.020508	1898.806030	69.561829
262.733063	1297.102661	2133.156982	1869.382202	68.450043
263.106293	1298.142822	2118.519287	1858.608276	68.318077
263.479523	1302.303711	2111.980469	1844.044922	66.908333
263.852692	1305.127319	2108.339600	1847.983032	67.585587
264.225861	1301.932251	2105.144775	1841.221558	67.141548
264.598969	1298.291504	2114.061279	1852.218140	67.902321
264.972076	1299.777466	2131.002197	1861.951782	67.632050
265.345154	1303.864258	2167.113037	1883.722534	67.171631
265.718201	1300.223267	2210.728760	1914.706665	67.488159
266.091217	1305.573120	2258.728516	1953.641479	67.991890
266.464203	1305.424438	2308.808350	1988.266602	68.053925
266.837158	1313.151978	2347.966064	2021.108398	68.413872
267.210114	1304.235718	2380.213379	2035.300171	67.944206
267.583038	1310.402832	2390.541504	2052.389648	68.693665
267.955902	1301.783569	2405.402100	2064.054932	69.070183
268.328766	1302.749512	2389.129883	2080.550537	71.595642
268.701569	1293.981812	2403.024170	2090.581299	71.827690
269.074371	1292.272949	2419.742432	2097.342773	71.405022
269.447144	1295.170776	2463.878174	2113.838135	70.048958
269.819885	1302.229614	2532.608398	2149.874756	68.893021
270.192596	1308.768066	2613.747070	2216.598877	69.566696
270.565277	1311.442993	2737.089111	2301.452393	69.442856
270.937927	1304.309937	2847.577393	2380.956299	69.764084
271.310577	1307.653442	2934.437500	2439.209717	69.557869
271.683136	1304.458496	2992.616455	2485.946045	69.986786
272.055725	1313.151978	2996.406006	2503.853271	70.738060
272.428284	1309.437012	2981.619873	2498.057373	71.081963
272.800812	1299.331665	2935.626221	2460.163086	70.942696
273.173279	1293.981812	2876.704102	2423.606201	71.372246
273.545776	1289.598022	2841.781982	2402.207031	71.680229
273.918152	1304.012817	2807.454102	2382.367920	71.725784
274.290558	1303.715698	2797.943359	2374.937744	71.690681
274.662964	1307.430786	2797.794922	2361.934814	70.754791
275.035278	1300.743408	2814.810303	2370.479736	70.653175
275.407593	1303.269653	2844.976807	2399.086182	71.078125
275.779907	1307.430664	2886.363525	2432.374023	71.247070
276.152161	1311.220215	2931.316650	2463.878174	71.147491
276.524384	1308.322388	2975.526611	2493.153564	71.066948
276.896606	1306.316162	2998.634766	2521.908691	71.830002
277.268799	1304.830200	3004.430664	2547.394531	73.109200
277.640930	1307.430664	3003.984619	2547.914551	73.117859
278.013031	1306.093140	3007.253906	2542.341797	72.670891
278.385162	1302.006470	3010.968994	2531.939453	71.969574
278.757233	1295.839478	3017.210693	2540.855713	72.327003
279.129272	1299.851807	3044.033936	2574.217773	73.063812
279.501282	1301.932251	3075.240967	2610.328857	73.782791
279.873230	1305.052979	3142.262451	2658.848389	73.687592
280.245178	1300.297607	3229.121826	2710.117432	73.092186
280.617126	1299.034546	3337.752197	2787.912109	73.030098
280.988983	1301.412231	3441.033203	2857.385498	72.721909
281.360870	1298.440063	3537.775391	2940.010010	73.306122
281.732697	1297.028320	3619.954346	3002.647217	73.425453
282.104492	1296.136597	3657.179932	3046.188721	74.121979
282.476288	1297.325317	3658.443359	3046.188721	74.069290
282.848053	1299.851685	3638.975586	3029.099365	73.927147
283.219757	1300.891968	3636.969482	3022.634766	73.702293
283.591461	1302.452393	3626.269775	3020.777100	73.944054
283.963135	1295.839478	3662.678467	3050.423828	74.131973
284.334747	1295.467896	3707.408447	3087.946533	74.316872
284.706360	1293.758911	3793.897217	3156.305420	74.497742
285.077942	1301.040649	3872.806396	3229.790771	74.997116
285.449524	1294.204834	3949.263672	3289.901611	75.165825
285.821014	1294.427734	3972.817627	3298.520752	74.824547
286.192535	1291.604248	4002.835938	3304.390625	74.238815
286.563995	1296.359497	4000.607422	3300.972656	74.128304
286.935425	1295.096558	3988.124268	3294.285889	74.235748
287.306824	1296.285278	3911.889648	3250.818359	74.725868
287.678223	1298.662964	3856.534180	3204.899170	74.524330
288.049561	1297.696899	3808.534424	3185.803467	75.198280
288.420898	1299.926147	3807.197266	3177.629883	74.890335
288.792145	1302.155151	3832.608643	3205.493408	75.217278
289.163452	1306.761841	3916.496826	3261.740967	74.911026
289.534668	1297.696899	4027.579102	3341.616211	74.872070
289.905914	1293.684692	4122.537598	3424.389648	75.320457
290.277039	1295.988159	4208.877441	3482.048584	75.047844
290.648193	1300.594849	4249.224121	3522.394775	75.350258
291.019318	1296.508179	4258.585938	3527.819092	75.329254
291.390381	1291.975708	4208.431641	3500.475342	75.725449
291.761475	1296.582397	4126.996094	3458.048828	76.365738
292.132507	1305.870239	4090.067627	3412.129639	75.650505
292.503510	1305.127319	4095.565674	3414.656250	75.598473
292.874481	1309.065308	4156.419434	3451.212891	75.232918
293.245422	1304.904297	4233.174316	3530.567627	76.006081
293.616364	1302.898193	4345.297363	3609.328857	75.809601
293.987213	1296.582520	4482.312012	3702.578857	75.524185
294.358093	1288.632202	4586.261719	3783.940674	75.669769
294.728943	1293.238892	4688.427246	3874.813232	76.036255
295.099731	1297.399780	4763.918945	3949.412842	76.503639
295.470490	1302.006714	4871.286621	4027.133057	76.349480
295.841248	1306.018921	4955.100098	4093.336670	76.384102
296.211975	1302.823853	5066.331543	4183.168457	76.533516
296.582642	1301.709351	5171.172363	4261.780762	76.498245
296.953308	1296.508179	5220.955078	4306.882813	76.708252
297.323883	1291.901489	5207.803223	4298.189453	76.771286
297.694519	1294.724976	5113.513184	4228.345215	76.820709
298.065063	1293.758911	5003.545410	4148.246582	76.944794
298.435608	1300.817749	4873.887207	4035.232422	76.528450
298.806122	1295.839478	4701.059082	3923.703857	77.171654
299.176575	1297.771362	4553.122559	3805.562500	77.035965
299.547028	1290.786987	4430.819824	3725.612549	77.541412
299.917450	1298.142822	4389.582031	3682.368408	77.123482
300.287872	1299.851929	4382.077637	3676.870117	77.120186
300.658234	1305.796021	4389.433105	3662.604248	76.429489
301.028564	1299.331665	4372.121094	3652.870361	76.592896
301.398865	1299.851807	4353.173828	3619.062500	75.956963
301.769135	1297.251099	4301.013184	3591.867920	76.391426
302.139374	1298.365845	4275.081543	3557.391357	75.889854
302.509583	1288.632202	4232.654297	3533.242920	76.243004
302.879791	1284.322632	4192.308105	3489.255859	75.823395
303.249939	1287.889038	4135.317871	3466.593506	76.514809
303.620087	1289.746460	4085.089111	3435.089111	76.747040
303.990173	1295.244995	4064.729736	3448.983643	77.766762
304.360260	1297.696899	4069.262451	3436.872314	77.182922
304.730286	1305.350220	4063.912842	3447.869141	77.667953
305.100281	1308.842407	4046.749268	3446.605713	78.080208
305.470276	1302.898315	4046.303467	3467.930664	78.917694
305.840179	1299.480347	4073.498047	3497.875000	79.249481
306.210144	1295.468018	4113.621582	3517.267578	78.838837
306.579987	1295.913696	4158.054688	3540.895752	78.437149
306.949890	1295.988159	4187.181641	3569.874023	78.648689
307.319702	1296.359497	4263.118652	3635.112061	78.831894
307.689484	1302.898193	4344.851563	3716.622070	79.347824
308.059265	1306.613403	4446.645996	3800.361328	79.417900
308.429016	1304.978638	4526.967285	3863.295654	79.401794
308.798737	1304.830078	4600.007324	3926.081299	79.548111
309.168396	1302.898315	4644.812012	3960.706299	79.529526
309.538055	1306.167603	4654.693848	3994.217041	80.275589
309.907684	1306.018921	4653.431152	3978.688232	79.842857
310.277313	1298.737183	4667.474121	3989.016357	79.860184
310.646851	1296.731079	4694.148926	3981.734375	79.030708
311.016388	1298.960083	4679.288574	3991.170654	79.643456
311.385895	1310.477173	4629.653809	3972.966797	80.215363
311.755371	1315.827026	4560.478027	3940.347656	80.887611
312.124817	1306.316284	4514.484863	3895.617188	80.709625
312.494232	1306.390503	4473.617676	3850.292236	80.319527
312.863617	1304.235718	4458.163086	3838.552734	80.354324
313.232971	1307.653564	4471.686523	3869.091064	80.954826
313.602295	1300.743530	4547.920898	3940.942139	81.307503
313.971619	1299.034546	4624.750000	4021.411865	81.858406
314.340820	1297.919922	4648.154785	4049.572510	82.133125
314.710083	1301.263550	4631.288574	4050.018311	82.544571
315.079285	1299.331665	4575.561523	3997.114990	82.344131
315.448486	1303.418457	4512.775879	3954.242188	82.596710
315.817596	1305.573120	4390.770508	3848.361084	82.418976
316.186707	1304.755859	4286.747559	3768.336914	82.615288
316.555786	1304.458618	4211.032227	3687.495361	81.987823
316.924866	1303.492676	4186.289551	3664.981689	81.916595
317.293884	1307.282104	4173.286621	3676.276123	82.658424
317.662872	1306.464722	4185.025879	3701.910156	83.216766
318.031830	1307.653687	4208.877441	3750.355469	84.195564
