Jaz Data File
++++++++++++++++++++++++++++++++++++
Date: Fri Jun 04 13:51:36 2021
User: jaz
Dark Spectrum Present: Yes
Reference Spectrum Present: Yes
Processed Spectrum Present: Yes
Spectrometers: JAZA3586
Integration Time (usec): 475000 (JAZA3586)
Spectra Averaged: 10 (JAZA3586)
Boxcar Smoothing: 1 (JAZA3586)
Correct for Electrical Dark: No (JAZA3586)
Strobe/Lamp Enabled: Yes (JAZA3586)
Correct for Detector Non-linearity: No (JAZA3586)
Correct for Stray Light: No (JAZA3586)
Number of Pixels in Processed Spectrum: 2048
>>>>>Begin Processed Spectral Data<<<<<
W	D	R	S	P
191.335022	0.000000	0.000000	0.000000	0.000000
191.713211	273.656952	280.864258	279.303925	78.350670
192.091385	560.985596	563.065979	558.459229	-121.437584
192.469528	843.187317	849.131531	844.673340	24.999487
192.847641	854.035583	856.413147	854.778503	31.247112
193.225739	875.731934	879.001221	880.487244	145.454041
193.603790	896.908142	893.341614	894.381836	70.833763
193.981842	915.112305	915.409485	908.127869	-2350.236084
194.359863	913.031738	918.158691	916.969910	76.813095
194.737854	934.430969	942.678650	932.722168	-20.718567
195.115829	926.926453	938.591980	931.161682	36.305511
195.493774	924.102966	937.254578	922.542542	-11.864895
195.871704	908.796570	920.239197	915.706726	60.389595
196.249603	939.409363	938.963440	926.034851	2999.288330
196.627457	941.341125	930.641602	916.969910	227.778503
197.005310	934.802551	933.687988	916.821228	1613.307007
197.383133	922.245422	918.901794	914.963684	217.779556
197.760910	936.734375	944.090393	948.028381	153.534241
198.138687	946.319519	947.434021	948.251404	173.340637
198.516449	936.660095	941.564026	941.638428	101.517189
198.894180	919.941956	925.068848	920.387878	8.697722
199.271866	914.889343	917.267090	919.570496	196.873474
199.649536	913.328918	915.186707	920.462097	383.960846
200.027191	923.211243	920.239258	924.623108	-47.505802
200.404816	913.997742	916.301208	915.706726	74.191841
200.782410	928.041016	934.728271	917.044189	-164.444519
201.159988	926.703552	948.548523	925.960510	-3.401433
201.537537	935.025391	962.888977	941.489746	23.200012
201.915070	923.359863	955.681580	942.604309	59.540298
202.292557	916.003967	945.279236	927.075012	37.817059
202.670029	915.260925	945.130615	927.223633	40.049656
203.047485	915.335266	943.867432	924.920227	33.593529
203.424911	909.911133	948.919983	926.554871	42.666569
203.802292	913.774902	957.019043	924.028625	23.711243
204.179688	908.499329	964.003479	928.115234	35.341331
204.557037	916.598389	964.895203	929.229797	26.153709
204.934357	917.118469	965.786804	930.270081	27.022932
205.311661	917.415588	962.145996	921.353821	8.804374
205.688934	910.356934	959.471008	926.554932	32.980358
206.066177	888.511902	937.774658	917.044250	57.918701
206.443390	887.471680	931.756104	921.130859	76.006813
206.820587	879.372742	928.189514	911.322937	65.449219
207.197769	901.292053	952.932373	922.468262	41.007122
207.574921	909.316711	958.876648	927.743835	37.181492
207.952042	921.353699	953.601135	928.041016	20.737514
208.329147	918.381653	952.783875	924.028625	16.414558
208.706223	1058.368042	1113.203247	1064.237915	10.704570
209.083267	1064.757935	1125.983398	1070.405029	9.223441
209.460297	1063.866333	1125.834839	1069.067505	8.393250
209.837280	922.542480	963.557800	925.068848	6.159570
210.214264	911.322937	956.498962	917.341370	13.322183
210.591217	905.155762	942.009827	907.607727	6.653175
210.968124	912.883240	959.916809	923.137024	21.800991
211.345016	920.685059	967.198486	937.774597	36.741085
211.721893	916.152527	967.347107	938.666260	43.976791
212.098724	905.750183	955.235657	928.635437	46.246407
212.475555	905.155762	958.133606	933.019226	52.594559
212.852356	910.431213	967.347107	942.232849	55.874790
213.229126	914.220703	970.839355	948.697205	60.892479
213.605865	911.322937	961.923035	932.276184	41.409500
213.982590	908.796631	954.344177	929.972900	46.492668
214.359283	898.542908	950.926270	914.220703	29.928961
214.735931	893.118713	953.972656	918.084473	41.025703
215.112579	899.583008	968.313049	922.393982	33.189232
215.489197	904.338440	967.421387	926.777832	35.571251
215.865799	906.567444	965.712585	925.143127	31.406948
216.242355	899.805969	963.929199	919.124695	30.127499
216.618896	903.743958	975.743347	933.242188	40.970112
216.995407	900.325989	979.309814	927.743835	34.713242
217.371902	894.976257	968.535950	924.994629	40.808182
217.748367	890.815247	964.226379	909.019470	24.797634
218.124802	889.403564	957.241882	900.623230	16.538832
218.501236	897.725403	958.653625	892.524231	-8.536556
218.877609	894.530457	955.607239	894.233215	-0.486668
219.253983	894.901917	958.282227	901.886414	11.019979
219.630295	896.016418	955.533020	911.694336	26.342091
220.006592	895.273438	958.579407	920.982239	40.610390
220.382889	903.075195	971.136536	923.211365	29.585325
220.759140	901.440613	979.384216	920.387878	24.308943
221.135391	909.613953	976.560608	910.059753	0.665904
221.511581	898.319885	968.015808	906.939026	12.366778
221.887772	894.456116	972.102539	913.997803	25.167530
222.263931	898.022705	991.941345	931.013123	35.126591
222.640060	913.403320	1015.123779	943.421692	29.510653
223.016159	913.551941	1023.594421	939.632263	23.700232
223.392212	906.641785	1018.393127	932.127625	22.805847
223.768265	897.725403	1009.625305	926.480530	25.697187
224.144302	890.815247	1009.030945	918.901672	23.758627
224.520294	883.905212	1010.071106	906.418884	17.844500
224.896286	895.793640	1026.417847	912.883301	13.083074
225.272217	907.607727	1040.163696	926.703613	14.405905
225.648148	916.672607	1062.008789	937.774658	14.519475
226.024048	899.434387	1060.745605	926.406250	16.720388
226.399902	896.610901	1074.788940	925.737549	16.346935
226.775772	888.957703	1076.200684	924.474426	18.968254
227.151581	893.713135	1108.968262	936.883057	20.055235
227.527374	893.490234	1129.698608	938.963562	19.251362
227.903137	899.434387	1176.360718	950.108948	18.298931
228.278870	907.904968	1230.750366	958.282227	15.604143
228.654572	906.047363	1315.826782	967.570068	15.013616
229.030273	903.298157	1394.662109	971.656738	13.912005
229.405930	894.456238	1473.942993	978.938416	14.578794
229.781555	902.034973	1526.400757	978.864075	12.305142
230.157181	900.920471	1553.298462	969.278992	10.478361
230.532761	899.434387	1529.447266	961.402893	9.836070
230.908325	890.592468	1478.252808	954.566956	10.886303
231.283859	893.787415	1421.782715	963.557617	13.214171
231.659332	895.124939	1381.510620	957.910645	12.908626
232.034821	891.632629	1353.498413	957.836426	14.333990
232.410263	884.573914	1337.300415	945.502136	13.458064
232.785690	880.858826	1309.808350	948.548584	15.780355
233.161087	890.369568	1290.415283	946.468018	14.023009
233.536469	896.090820	1271.245239	949.960266	14.359273
233.911804	903.298157	1275.109009	952.412292	13.209441
234.287140	897.353943	1282.762085	952.783875	14.382138
234.662430	898.096985	1309.956909	962.517395	15.641339
235.037704	896.536621	1321.473877	964.820862	16.069252
235.412933	892.524353	1329.572876	969.204651	17.545031
235.788162	885.465576	1316.421387	954.492737	16.017225
236.163345	890.295227	1326.303589	956.350281	15.149951
236.538513	903.595398	1339.678101	968.684570	14.925878
236.913635	907.013367	1363.009155	977.972351	15.561324
237.288742	908.796570	1377.498169	989.489258	17.216217
237.663834	906.641785	1376.012085	977.898132	15.181265
238.038879	910.877014	1367.615845	984.585388	16.137970
238.413910	905.527283	1354.910034	969.576172	14.252636
238.788910	899.583008	1372.965698	974.926025	15.915879
239.163879	899.285828	1388.049194	976.857910	15.871092
239.538834	898.468506	1407.590820	981.613281	16.331001
239.913757	900.400391	1446.525391	993.353088	17.020407
240.288651	902.034973	1487.391968	997.365417	16.285864
240.663528	902.852356	1542.673218	1008.956604	16.583431
241.038361	895.942200	1590.821289	1017.055603	17.429420
241.413177	895.645020	1686.671875	1034.219604	17.518316
241.787979	885.985657	1796.937012	1041.203979	17.039145
242.162735	884.573914	1931.350586	1050.863403	15.885862
242.537476	871.793762	2042.433228	1052.349487	15.423684
242.912170	891.781250	2170.828369	1084.968384	15.103989
243.286865	898.319885	2226.332520	1094.256226	14.754102
243.661514	905.973145	2232.425293	1102.503784	14.816263
244.036148	902.109375	2152.178223	1087.940552	14.865675
244.410751	909.762512	2054.470215	1079.024170	14.786451
244.785339	909.242371	1965.232788	1062.974731	14.558120
245.159882	903.446777	1925.332031	1061.711548	15.487529
245.534378	900.400391	1950.743530	1070.776489	16.220995
245.908890	900.177490	2049.566162	1091.655640	16.659130
246.283356	894.753418	2210.208740	1111.717285	16.493443
246.657791	884.276672	2434.528564	1137.946167	16.363113
247.032196	891.632629	2687.826660	1183.122192	16.228178
247.406586	887.620300	2915.341797	1207.493530	15.775008
247.780960	896.610901	3066.473389	1228.744019	15.306643
248.155289	889.849365	3106.968018	1218.267456	14.812834
248.529602	896.908203	3012.306641	1202.366699	14.439762
248.903870	899.360168	2826.178467	1176.657959	14.391486
249.278122	898.319885	2611.666260	1134.156616	13.764685
249.652344	896.982422	2435.568848	1110.899902	13.903507
250.026550	903.520996	2293.353516	1091.358398	13.515111
250.400711	923.880066	2194.456543	1116.398315	15.152040
250.774857	926.332031	2123.868896	1114.243530	15.691500
251.148987	907.384827	2093.330566	1109.339722	17.029016
251.523071	884.276672	2084.042725	1095.519287	17.606983
251.897125	899.062927	2141.627197	1118.107422	17.628424
252.271164	899.954590	2196.462891	1132.299194	17.920795
252.645187	900.326111	2255.681885	1137.128906	17.471634
253.019165	874.988831	2255.607666	1120.931030	17.813910
253.393112	898.542786	2255.904785	1132.596313	17.243265
253.767044	892.227051	2177.812744	1114.912354	17.321701
254.140930	908.796570	2096.748291	1104.361328	16.462349
254.514801	903.521057	2008.551147	1081.178955	16.077202
254.888657	912.065918	1965.307007	1082.665039	16.197538
255.262466	905.081360	1944.428101	1079.246948	16.757217
255.636276	912.957520	1958.916992	1094.701904	17.375853
256.010010	919.347473	1992.353149	1098.788574	16.723221
256.383759	927.595154	2030.544922	1109.785522	16.518465
256.757446	919.421875	2072.971680	1109.711060	16.495966
257.131134	919.496277	2134.197021	1127.915283	17.158054
257.504791	912.957520	2227.149658	1140.992554	17.351727
257.878418	903.818359	2327.681396	1159.939819	17.987787
258.252014	902.257996	2479.704834	1193.375977	18.455011
258.625580	908.350769	2656.619873	1245.982300	19.312332
258.999115	900.028809	2886.735107	1292.793091	19.769619
259.372650	894.381836	3172.354492	1344.953613	19.779509
259.746124	884.350891	3488.438477	1378.315430	18.968813
260.119598	890.369446	3794.565674	1413.609253	18.016682
260.493042	894.976257	3980.991455	1419.182007	16.986494
260.866425	897.576843	4016.284912	1411.305786	16.472492
261.239838	904.858582	3859.952148	1372.445435	15.823081
261.613159	910.208313	3581.465576	1319.987793	15.340322
261.986511	902.778015	3278.607422	1272.954224	15.580926
262.359802	889.700745	3034.151367	1242.415894	16.447809
262.733063	881.230225	2881.459229	1232.756470	17.574301
263.106293	886.580078	2788.878174	1228.075317	17.951721
263.479523	907.013245	2748.383545	1229.709961	17.524813
263.852692	910.951355	2708.333984	1223.542847	17.391483
264.225861	912.363037	2661.374756	1221.536743	17.677052
264.598969	907.310547	2632.619629	1225.029053	18.415165
264.972076	904.932800	2637.746582	1235.505737	19.077234
265.345154	911.917236	2690.427490	1250.960693	19.063339
265.718201	905.527283	2737.832764	1243.010254	18.418489
266.091217	926.406250	2836.506592	1275.109009	18.255730
266.464203	931.236023	2934.437500	1289.152222	17.867210
266.837158	926.703430	3036.009033	1318.724609	18.585320
267.210114	899.583008	3100.281006	1309.139526	18.610300
267.583038	894.827637	3147.166016	1311.665894	18.506910
267.955902	898.022705	3184.391846	1312.408936	18.124205
268.328766	907.607727	3183.351563	1311.368652	17.741932
268.701569	896.462219	3169.976807	1316.124023	18.458725
269.074371	889.997986	3168.342529	1314.563599	18.634830
269.447144	888.660461	3211.214844	1329.201294	18.967945
269.819885	890.889648	3273.257813	1344.136108	19.025038
270.192596	899.285828	3384.637451	1380.544556	19.363810
270.565277	927.446594	3532.871826	1429.287109	19.261366
270.937927	927.000732	3728.064697	1462.054688	19.101810
271.310577	926.183411	3937.598389	1493.261719	18.830957
271.683136	892.970032	4148.618652	1513.100586	19.047834
272.055725	895.422058	4301.979004	1527.961060	18.568279
272.428284	896.685242	4338.461426	1527.589478	18.330774
272.800812	909.316711	4269.211426	1517.261353	18.094156
273.173279	914.443542	4137.250000	1514.140747	18.607920
273.545776	909.762451	4032.111328	1498.537476	18.856798
273.918152	915.186584	3932.471436	1474.909058	18.550535
274.290558	908.796570	3850.738525	1445.782349	18.252766
274.662964	911.917297	3785.574951	1436.568726	18.257269
275.035278	895.793640	3735.792236	1427.949707	18.737900
275.407593	900.028809	3746.268799	1442.364380	19.054457
275.779907	913.254700	3789.290283	1467.107056	19.257492
276.152161	907.682068	3868.422607	1474.463013	19.143215
276.524384	910.654114	3959.220459	1479.961548	18.674595
276.896606	893.787415	4020.668701	1479.144165	18.720146
277.268799	899.657410	4071.789063	1499.949097	18.923922
277.640930	894.456116	4081.671143	1510.500000	19.328594
278.013031	900.846191	4089.101563	1511.985962	19.168470
278.385162	901.960693	4068.296631	1505.075806	19.047729
278.757233	903.372375	4055.293701	1507.676636	19.172567
279.129272	903.446777	4067.628174	1503.961548	18.978519
279.501282	909.019531	4097.572266	1509.979980	18.847437
279.873230	908.276367	4157.385742	1526.252319	19.019857
280.245178	907.236145	4250.858887	1561.397339	19.564444
280.617126	901.291992	4405.705566	1603.452759	20.036470
280.988983	889.552185	4571.549316	1628.269897	20.062963
281.360870	902.629395	4756.562988	1667.130249	19.836897
281.732697	893.713074	4911.038574	1692.467407	19.882738
282.104492	902.332214	5047.012695	1712.751953	19.553249
282.476288	875.731873	5143.160156	1706.064819	19.457455
282.848053	887.323059	5197.847168	1705.916016	18.990568
283.219757	888.586182	5222.069824	1698.857422	18.697920
283.591461	910.728333	5151.110352	1702.721069	18.677391
283.963135	909.242371	5074.429688	1692.170288	18.796944
284.334747	918.678772	5050.132813	1717.432983	19.333488
284.706360	911.545715	5142.045410	1736.231567	19.493818
285.077942	920.982239	5291.171387	1779.252808	19.639210
285.449524	917.787292	5434.129883	1789.432495	19.299801
285.821014	912.140320	5514.525391	1791.141479	19.098818
286.192535	903.000977	5621.298340	1800.652222	19.024899
286.563995	894.010254	5703.031250	1810.460083	19.056890
286.935425	893.415833	5732.455078	1806.596313	18.871113
287.306824	887.620300	5674.424316	1773.383179	18.504263
287.678223	885.837097	5543.429199	1743.661987	18.417776
288.049561	903.595398	5421.795410	1739.872437	18.509075
288.420898	907.459167	5308.854980	1721.519653	18.495506
288.792145	914.443542	5266.576660	1720.479492	18.520479
289.163452	904.412781	5303.579590	1726.052246	18.677160
289.534668	898.988586	5425.956543	1780.367554	19.469522
289.905914	893.415955	5575.453613	1816.775879	19.721327
290.277039	901.960693	5761.953125	1855.636108	19.622982
290.648193	926.109131	5925.196777	1878.892944	19.059153
291.019318	924.994568	6055.894531	1883.499634	18.681032
291.390381	908.796570	6076.773438	1860.094360	18.407547
291.761475	884.573914	5994.966309	1820.639648	18.316904
292.132507	882.864929	5879.796875	1799.760620	18.349173
292.503510	883.459290	5781.791504	1799.611938	18.703360
292.874481	917.564270	5762.175781	1842.335938	19.088665
293.245422	918.976074	5800.367188	1869.233521	19.466940
293.616364	924.102966	5927.128418	1897.840210	19.462969
293.987213	898.171326	6074.470215	1905.567505	19.461708
294.358093	900.400391	6273.304688	1939.672485	19.342836
294.728943	889.998047	6467.160156	1956.093384	19.115374
295.099731	884.276672	6694.154785	1967.387329	18.642570
295.470490	889.626465	6846.476074	1995.473755	18.564297
295.841248	902.852356	6962.685059	2041.244141	18.785864
296.211975	901.143372	7048.430176	2075.200439	19.098785
296.582642	905.230164	7212.490723	2091.993164	18.815823
296.953308	899.137207	7351.808594	2102.618408	18.650898
297.323883	896.165100	7476.414063	2097.342773	18.254290
297.694519	891.558411	7485.033203	2084.042725	18.085827
298.065063	903.892578	7448.550781	2057.887939	17.632629
298.435608	909.390930	7233.667480	2013.975220	17.465780
298.806122	904.858582	6925.756348	1948.291626	17.330191
299.176575	903.372498	6596.224609	1888.552124	17.305555
299.547028	907.459167	6351.619629	1853.407104	17.375460
299.917450	907.830750	6208.289551	1845.382324	17.688120
300.287872	891.855530	6115.187988	1831.265015	17.984869
300.658234	884.796875	6074.396484	1832.305054	18.257828
301.028564	884.128113	6029.071777	1824.429077	18.276215
301.398865	883.607910	5962.125000	1819.896484	18.436258
301.769135	889.329285	5898.521484	1805.333008	18.286455
302.139374	892.821472	5868.354004	1795.822266	18.148827
302.509583	895.570618	5820.726563	1781.779297	17.993515
302.879791	899.731689	5747.167480	1768.330444	17.918728
303.249939	891.929871	5647.006348	1738.832397	17.810492
303.620087	896.165100	5568.022949	1726.498047	17.773077
303.990173	883.682190	5502.488281	1720.851074	18.125223
304.360260	894.753357	5449.658691	1727.315430	18.278362
304.730286	895.347717	5433.460449	1733.185425	18.462250
305.100281	900.325989	5423.949707	1724.640503	18.222439
305.470276	894.158936	5418.154297	1727.463867	18.419668
305.840179	890.815369	5428.333984	1724.045898	18.363132
306.210144	891.855469	5432.791504	1732.219238	18.506399
306.579987	900.548889	5464.296875	1748.342896	18.576704
306.949890	904.264160	5499.218750	1756.144897	18.539480
307.319702	909.093811	5587.193359	1786.460327	18.754763
307.689484	902.778015	5690.102051	1794.187866	18.620211
308.059265	904.709900	5809.655762	1829.109985	18.846285
308.429016	895.719299	5940.725098	1847.685669	18.869480
308.798737	898.022644	6076.030762	1878.298462	18.931522
309.168396	894.233215	6193.057129	1892.267456	18.835014
309.538055	903.298157	6266.246094	1895.239380	18.496195
309.907684	896.165222	6265.131348	1882.310913	18.367516
310.277313	893.193054	6285.490234	1884.688477	18.387255
310.646851	902.703796	6296.264160	1883.276855	18.180441
311.016388	918.233093	6312.908203	1890.632813	18.025177
311.385895	940.300964	6268.994629	1894.942383	17.915112
311.755371	922.616882	6215.125488	1878.521484	18.061464
312.124817	913.923523	6166.308594	1863.586548	18.080605
312.494232	897.874084	6097.801270	1834.831177	18.018658
312.863617	901.960693	6005.071777	1818.410522	17.958649
313.232971	900.177490	5965.988281	1811.500366	17.989676
313.602295	894.158997	5958.707031	1814.844116	18.179020
313.971619	888.660583	6020.378418	1837.432129	18.488380
314.340820	885.242615	6042.000000	1845.976685	18.630585
314.710083	897.576843	6110.135254	1854.298828	18.354172
315.079285	909.465271	6124.326660	1852.441040	18.082470
315.448486	917.935791	6133.837891	1852.069702	17.909344
315.817596	912.808899	6015.028809	1815.438354	17.690916
316.186707	904.338379	5845.395020	1781.184692	17.746130
316.555786	905.378662	5650.275879	1743.438965	17.662348
316.924866	901.589172	5491.490723	1713.346558	17.685726
317.293884	901.217773	5414.513672	1699.897827	17.696159
317.662872	901.886475	5388.729980	1706.361938	17.929651
318.031830	898.914368	5413.102051	1725.977905	18.321426
318.400757	912.660339	5457.312012	1742.547485	18.260742
318.769684	904.264099	5488.222168	1738.015015	18.188450
319.138550	895.199158	5511.181152	1727.983887	18.041334
319.507416	888.957764	5511.032715	1724.491821	18.077032
319.876190	888.289063	5506.351563	1708.739624	17.766121
320.244995	920.090576	5471.429688	1731.104858	17.819246
320.613770	924.251526	5391.554199	1709.631226	17.580624
320.982483	924.845947	5322.155762	1720.256470	18.088572
321.351166	897.948425	5272.595215	1699.154663	18.314764
321.719818	888.289001	5276.681641	1715.724243	18.855087
