Jaz Data File
++++++++++++++++++++++++++++++++++++
Date: Fri Jun 04 13:45:15 2021
User: jaz
Dark Spectrum Present: Yes
Reference Spectrum Present: Yes
Processed Spectrum Present: Yes
Spectrometers: JAZA3586
Integration Time (usec): 386000 (JAZA3586)
Spectra Averaged: 10 (JAZA3586)
Boxcar Smoothing: 1 (JAZA3586)
Correct for Electrical Dark: No (JAZA3586)
Strobe/Lamp Enabled: Yes (JAZA3586)
Correct for Detector Non-linearity: No (JAZA3586)
Correct for Stray Light: No (JAZA3586)
Number of Pixels in Processed Spectrum: 2048
>>>>>Begin Processed Spectral Data<<<<<
W	D	R	S	P
191.335022	0.000000	0.000000	0.000000	0.000000
191.713211	286.065460	285.248138	278.337982	945.463379
192.091385	572.502502	577.257874	563.288940	-193.750641
192.469528	854.406982	861.837219	851.286316	-41.999557
192.847641	859.682556	865.923828	868.821716	146.431046
193.225739	885.911377	882.047607	888.883484	-76.922470
193.603790	921.205139	908.276550	906.195984	116.092758
193.981842	931.979004	931.904785	918.753174	17820.066406
194.359863	932.573425	939.037842	930.715881	-28.734905
194.737854	946.170898	946.913879	950.034607	520.027954
195.115829	950.108887	942.530029	952.263672	-28.431530
195.493774	946.170837	931.384583	948.771484	-17.588274
195.871704	932.499207	924.103027	937.923279	-64.601677
196.249603	954.121277	933.465088	949.440186	22.661932
196.627457	952.337952	942.604309	940.152344	125.190628
197.005310	948.399902	940.300964	932.127625	200.918655
197.383133	928.486816	932.424988	931.607483	79.241508
197.760910	946.839539	940.375305	951.446350	-71.266167
198.138687	946.839600	944.536194	956.796143	-432.253113
198.516449	949.663086	944.164612	944.536194	93.242088
198.894180	927.966614	930.715820	926.554993	-51.346493
199.271866	925.291748	933.687988	922.542664	-32.741852
199.649536	922.765442	935.174011	919.867859	-23.351467
200.027191	932.870667	943.793030	917.415771	-141.497726
200.404816	924.325867	940.300842	917.787292	-40.930103
200.782410	923.880066	954.046875	932.276306	27.832708
201.159988	922.616882	964.077820	945.427917	55.018135
201.537537	931.756165	977.377991	962.443176	67.263885
201.915070	928.561218	968.610352	956.350403	69.387733
202.292557	920.685059	963.780579	955.458740	80.689781
202.670029	919.719177	959.396729	947.805481	70.786385
203.047485	921.502441	963.483398	938.517578	40.530605
203.424911	920.016357	963.929199	931.830322	26.903212
203.802292	913.997803	969.353333	933.687988	35.570404
204.179688	909.465332	967.867249	933.465088	41.094124
204.557037	912.363098	964.597961	935.099792	43.527813
204.934357	925.737610	956.350342	930.715881	16.262094
205.311661	936.288574	955.161438	934.728210	-8.267764
205.688934	933.242188	959.396729	937.105957	14.772844
206.066177	919.570496	957.019043	929.378418	26.190395
206.443390	908.796631	960.436951	932.647766	46.187038
206.820587	908.870911	949.365906	926.406433	43.302937
207.197769	923.508545	966.678406	942.455750	43.889889
207.574921	926.332031	963.706299	946.765198	54.671749
207.952042	931.533203	973.514221	953.452454	52.212288
208.329147	931.236023	965.489563	947.954102	48.806862
208.706223	1056.881958	1091.878540	1055.767212	-3.185300
209.083267	1059.556763	1097.971313	1066.986938	19.342087
209.460297	1049.600220	1098.119995	1070.553589	43.185215
209.837280	920.759277	970.393555	954.418457	67.814384
210.214264	906.344543	961.179993	946.319519	72.899879
210.591217	898.617126	952.189392	938.369080	74.202484
210.968124	907.384827	968.387390	952.709473	74.299576
211.345016	922.245422	974.183044	957.984924	68.812355
211.721893	922.839844	977.526611	959.025208	66.168411
212.098724	917.638672	957.390625	948.177063	76.822365
212.475555	922.542664	960.214111	946.839661	64.497116
212.852356	933.390686	959.248230	951.669373	70.689957
213.229126	940.003723	970.170593	955.904602	52.709740
213.605865	923.880066	955.904480	938.443359	45.475597
213.982590	911.768738	956.053040	926.852112	34.060318
214.359283	899.805969	953.155273	923.954346	45.264652
214.735931	895.942200	960.511230	930.047180	52.819408
215.112579	900.400391	967.644287	934.282410	50.386757
215.489197	901.440613	968.610352	930.864502	43.805275
215.865799	909.168152	980.275879	933.167786	33.751091
216.242355	903.818298	971.359558	936.214355	47.964840
216.618896	918.307312	983.768066	949.068665	46.992054
216.995407	915.409424	969.873352	943.273010	51.159706
217.371902	914.889343	968.387390	939.334961	45.694412
217.748367	902.183594	955.978821	934.802551	60.635410
218.124802	902.852356	961.551514	944.461853	70.886024
218.501236	903.595398	957.539124	939.557922	66.666740
218.877609	908.499329	960.288391	934.653992	50.502293
219.253983	904.858582	960.065430	919.644714	26.783150
219.630295	903.669617	983.247864	928.263855	30.905729
220.006592	900.846191	991.644043	923.657043	25.122679
220.382889	907.533386	998.554199	936.065674	31.346992
220.759140	914.146301	988.746277	931.681824	23.506069
221.135391	910.877014	994.244690	936.808594	31.105078
221.511581	903.669739	994.913391	935.248352	34.609108
221.887772	899.508789	1005.092957	934.951172	33.567894
222.263931	911.248535	1011.780212	950.034607	38.580944
222.640060	924.994568	1017.947266	965.192383	43.245453
223.016159	926.852112	1022.999817	971.953857	46.908810
223.392212	914.220703	1022.033875	964.597900	46.726383
223.768265	899.434387	1027.532349	954.715637	43.155449
224.144302	892.672913	1027.532349	953.898376	45.399467
224.520294	893.787415	1023.668640	948.028381	41.761978
224.896286	909.242432	1033.179321	960.362610	41.246944
225.272217	919.124695	1041.947144	965.117981	37.446972
225.648148	927.595215	1066.392578	978.938293	36.991394
226.024048	909.019470	1065.798218	964.746521	35.545029
226.399902	903.743958	1077.612305	966.604065	36.153854
226.775772	894.307556	1072.708374	957.687744	35.526848
227.151581	910.431152	1098.194214	970.170593	31.816397
227.527374	903.669617	1127.469360	971.879578	30.478123
227.903137	910.579773	1175.394897	985.477051	28.282856
228.278870	908.127869	1238.329224	990.975403	25.090004
228.654572	914.369324	1308.396729	995.656433	20.629810
229.030273	909.688171	1396.891235	994.541931	17.416508
229.405930	901.589172	1473.497192	997.736877	16.811743
229.781555	906.121765	1537.992065	1007.990723	16.121815
230.157181	908.276550	1551.960938	1003.086731	14.729297
230.532761	904.338379	1529.001343	996.845276	14.809090
230.908325	895.570618	1470.748047	983.693665	15.321019
231.283859	892.598572	1427.578125	986.740051	17.597210
231.659332	899.434387	1381.139038	982.876404	17.322235
232.034821	902.778015	1356.321899	978.046692	16.595676
232.410263	903.298157	1334.996948	978.492615	17.418270
232.785690	899.508728	1312.037476	985.774231	20.911392
233.161087	903.075195	1299.851685	997.662598	23.838963
233.536469	904.264099	1280.235840	997.142517	24.703564
233.911804	907.161865	1289.449463	996.102295	23.265320
234.287140	909.688171	1298.291382	992.387146	21.281084
234.662430	912.363098	1324.446045	994.839111	20.014420
235.037704	912.734619	1341.981445	988.523438	17.656233
235.412933	901.514954	1348.000000	985.625549	18.838390
235.788162	893.044434	1346.365356	979.978516	19.177160
236.163345	900.549011	1348.371460	998.108398	21.785282
236.538513	908.053650	1364.792358	1005.835876	21.408789
236.913635	908.722351	1371.108032	1014.752258	22.931053
237.288742	901.217773	1377.423828	1010.814209	23.014498
237.663834	898.171326	1372.668457	1011.111389	23.802053
238.038879	899.880188	1375.937866	1006.430359	22.381777
238.413910	898.394226	1389.683716	1001.154785	20.916498
238.788910	899.285828	1402.538208	1003.681152	20.744129
239.163879	903.595398	1417.770142	1008.287903	20.361269
239.538834	908.573669	1425.051880	1018.764648	21.335068
239.913757	914.294983	1469.336304	1033.476563	21.472559
240.288651	916.375488	1509.756836	1045.662231	21.788137
240.663528	908.127869	1562.214478	1058.888062	23.048965
241.038361	897.725403	1609.619751	1070.033447	24.204159
241.413177	897.948425	1708.219604	1100.869141	25.043556
241.787979	899.508789	1819.970825	1123.160034	24.297716
242.162735	903.818359	1958.619629	1143.444580	22.717665
242.537476	896.833801	2076.760986	1145.450806	21.070538
242.912170	919.050293	2205.007568	1167.741577	19.339001
243.286865	924.920227	2262.815186	1175.394653	18.721531
243.661514	924.697327	2259.768799	1173.537109	18.638685
244.036148	912.883118	2186.951904	1153.401245	18.877954
244.410751	914.740784	2082.259521	1145.747925	19.786160
244.785339	916.747009	1999.040405	1145.896606	21.172594
245.159882	913.626221	1949.777710	1151.989380	23.004663
245.534378	916.003906	1986.854858	1166.627075	23.404114
245.908890	913.477600	2072.005859	1193.004517	24.127758
246.283356	907.236145	2235.694580	1233.870972	24.587507
246.657791	888.214661	2451.172607	1275.851929	24.801516
247.032196	896.833801	2719.405029	1327.863892	23.649561
247.406586	900.994690	2953.755859	1354.612915	22.097954
247.780960	911.694336	3110.163086	1363.974976	20.572531
248.155289	900.325989	3134.237305	1337.671875	19.577585
248.529602	897.725403	3042.547852	1301.486450	18.824917
248.903870	901.143372	2861.620850	1267.084229	18.665905
249.278122	904.784180	2650.155273	1238.477661	19.118771
249.652344	897.725525	2462.020752	1214.552124	20.253633
250.026550	896.908203	2311.557861	1198.057007	21.287872
250.400711	916.226868	2211.323242	1194.416382	21.480217
250.774857	924.103027	2137.243408	1196.496704	22.453600
251.148987	927.298035	2105.442139	1200.137573	23.158419
251.523071	907.904968	2105.293701	1201.474976	24.517521
251.897125	926.629211	2160.351807	1225.028931	24.186937
252.271164	916.003906	2223.211914	1231.716187	24.151648
252.645187	912.808899	2283.694092	1239.517944	23.831976
253.019165	892.524231	2297.291748	1216.855591	23.087902
253.393112	920.610657	2290.455566	1222.577026	22.043835
253.767044	925.663269	2211.546143	1204.892944	21.715017
254.140930	928.858337	2130.110352	1208.385132	23.269623
254.514801	910.356934	2040.947266	1188.992188	24.645111
254.888657	911.099915	1997.777344	1180.670288	24.806843
255.262466	914.815125	1962.334961	1172.125488	24.563772
255.636276	923.285645	1973.926147	1186.614502	25.063650
256.010010	924.845947	1996.365601	1217.375854	27.300470
256.383759	921.948181	2038.272339	1238.997925	28.401224
256.757446	910.059753	2080.996338	1253.115356	29.297541
257.131134	906.493225	2157.973877	1272.359741	29.234692
257.504791	902.629456	2259.025391	1293.907593	28.846895
257.878418	903.521057	2365.352783	1328.012573	29.038328
258.252014	911.471436	2515.964600	1373.485718	28.795031
258.625580	915.558105	2692.581787	1443.033203	29.683065
258.999115	906.195984	2939.787109	1513.843628	29.880524
259.372650	900.103210	3214.038330	1592.604492	29.927429
259.746124	892.004150	3535.992188	1659.105469	29.013041
260.119598	899.211426	3831.642578	1707.625122	27.568037
260.493042	898.096924	4030.105225	1718.547729	26.195679
260.866425	903.669617	4079.516602	1694.845093	24.912268
261.239838	902.926575	3933.289063	1630.721802	24.016771
261.613159	903.669678	3662.158203	1559.093872	23.760265
261.986511	904.264160	3344.142578	1485.608398	23.826771
262.359802	912.734619	3084.677490	1452.098022	24.833221
262.733063	908.425049	2920.096924	1434.265259	26.139462
263.106293	913.626221	2820.679688	1428.618530	27.004608
263.479523	911.174255	2762.203857	1428.395508	27.942356
263.852692	923.508545	2723.714600	1419.702148	27.563156
264.225861	917.712952	2684.185791	1415.318237	28.169426
264.598969	921.205139	2666.427490	1414.129395	28.244209
264.972076	919.198975	2672.297607	1419.330566	28.528435
265.345154	926.777832	2719.108154	1447.937134	29.077190
265.718201	915.112305	2767.107422	1477.138062	30.347044
266.091217	927.075012	2861.174561	1534.351196	31.398392
266.464203	927.223633	2945.731201	1567.936157	31.741894
266.837158	928.858215	3059.340088	1584.208374	30.760653
267.210114	906.716125	3136.391846	1573.583008	29.908693
267.583038	899.583069	3201.406982	1569.273438	29.093901
267.955902	908.350769	3235.289063	1581.830566	28.942745
268.328766	910.356934	3226.372803	1596.319702	29.618223
268.701569	906.790344	3227.635986	1602.041016	29.956781
269.074371	891.855652	3230.310791	1600.777954	30.315840
269.447144	898.171326	3265.084229	1623.217163	30.632553
269.819885	903.223877	3318.359375	1666.238647	31.593042
270.192596	916.003906	3419.634033	1736.603149	32.776379
270.565277	926.109070	3577.081299	1819.673462	33.707047
270.937927	917.787170	3756.819580	1889.889648	34.240627
271.310577	914.146301	3973.041016	1936.403320	33.419163
271.683136	899.657410	4175.367188	1954.161499	32.191624
272.055725	901.440674	4344.777344	1955.573242	30.613695
272.428284	899.211609	4382.151855	1933.876831	29.706663
272.800812	897.874023	4332.071777	1900.737793	29.202272
273.173279	907.087585	4185.843750	1869.976563	29.367508
273.545776	906.493164	4063.467529	1854.967407	30.043774
273.918152	916.152527	3939.678955	1842.781738	30.647301
274.290558	911.620117	3880.682861	1826.955200	30.829092
274.662964	917.861511	3820.794678	1810.757202	30.758396
275.035278	904.264099	3775.395752	1805.630371	31.394112
275.407593	909.391052	3769.525391	1834.014038	32.327957
275.779907	911.843018	3831.568359	1879.264526	33.133991
276.152161	917.341370	3925.932861	1907.722290	32.918423
276.524384	915.632385	4015.319092	1919.388062	32.382488
276.896606	914.889404	4067.628174	1929.121704	32.169880
277.268799	916.672668	4114.661621	1937.369141	31.916822
277.640930	909.465271	4123.949219	1952.006836	32.432625
278.013031	907.533447	4136.432617	1952.081055	32.349960
278.385162	907.310547	4116.073730	1955.276001	32.659481
278.757233	907.904968	4103.516602	1951.189453	32.647411
279.129272	901.737793	4085.535156	1967.833374	33.485031
279.501282	893.416016	4097.200684	1984.105469	34.043781
279.873230	895.199219	4162.141113	2016.129883	34.311314
280.245178	897.948425	4276.790039	2050.680664	34.116196
280.617126	901.589172	4452.070313	2121.268311	34.352505
280.988983	896.388000	4626.607422	2182.345459	34.474045
281.360870	908.647949	4806.791504	2263.781006	34.763550
281.732697	906.567444	4952.499512	2295.508301	34.329319
282.104492	914.889465	5077.179199	2320.919678	33.780212
282.476288	904.487122	5152.967773	2299.520508	32.836056
282.848053	912.363098	5184.026855	2299.223389	32.466515
283.219757	905.898743	5212.261230	2305.910645	32.510315
283.591461	912.288757	5168.868652	2306.728027	32.759613
283.963135	910.951355	5133.129395	2313.786865	33.225395
284.334747	920.239258	5094.343262	2341.130127	34.040619
284.706360	913.849121	5159.729492	2397.822998	34.950912
285.077942	921.799561	5298.007324	2458.156982	35.107048
285.449524	926.406311	5453.820313	2496.422852	34.677998
285.821014	924.846008	5558.214844	2491.964844	33.822453
286.192535	913.180420	5681.260254	2512.323486	33.538509
286.563995	900.325989	5760.169922	2515.593018	33.237019
286.935425	893.936035	5813.890625	2525.549561	33.163181
287.306824	898.171326	5744.343750	2473.314697	32.502834
287.678223	898.691406	5625.458984	2423.829102	32.265976
288.049561	913.106140	5498.550293	2397.674316	32.375664
288.420898	906.716125	5361.535645	2396.262451	33.436741
288.792145	913.106140	5330.551758	2425.909424	34.246109
289.163452	907.533447	5360.940918	2456.670654	34.785439
289.534668	914.666504	5490.302246	2513.884033	34.950718
289.905914	908.499329	5628.951172	2559.505859	34.975605
290.277039	915.186584	5819.240234	2638.340820	35.137344
290.648193	923.434265	6011.089844	2690.650146	34.735367
291.019318	919.198914	6128.860840	2699.195068	34.167210
291.390381	909.911133	6132.649902	2635.220459	33.034569
291.761475	900.177490	6028.031250	2562.478027	32.417084
292.132507	903.075195	5926.533203	2535.060303	32.487286
292.503510	901.217712	5821.395020	2531.122070	33.126942
292.874481	930.492981	5818.274902	2596.136963	34.077709
293.245422	937.551758	5825.036621	2645.548096	34.946323
293.616364	944.833313	5943.846191	2730.178955	35.713966
293.987213	922.245300	6109.838379	2778.475830	35.782112
294.358093	922.393982	6327.248535	2844.902344	35.570030
294.728943	906.864746	6551.939453	2901.669922	35.337090
295.099731	897.799805	6726.550781	2956.579346	35.321110
295.470490	896.908203	6901.607910	3002.795898	35.070660
295.841248	914.963684	7013.359375	3064.838623	35.253124
296.211975	909.688171	7130.980957	3107.711182	35.330647
296.582642	902.852356	7278.992188	3163.884033	35.460827
296.953308	896.685242	7435.175781	3181.939697	34.950794
297.323883	903.149597	7541.280762	3186.100830	34.391472
297.694519	910.579895	7536.673340	3142.633545	33.685818
298.065063	921.576660	7448.327637	3080.962158	33.085152
298.435608	922.468323	7245.555176	2990.610352	32.707790
298.806122	921.353821	6955.626465	2893.571045	32.683598
299.176575	913.700623	6618.812500	2799.652344	33.057224
299.547028	918.158691	6387.433594	2734.117188	33.202911
299.917450	912.883240	6240.314453	2700.978027	33.563919
300.287872	902.629456	6169.206543	2687.826660	33.896729
300.658234	894.158936	6097.058594	2692.135986	34.557213
301.028564	902.109375	6028.848145	2686.786377	34.811157
301.398865	910.431335	5983.671875	2668.879150	34.661232
301.769135	913.997864	5929.134277	2637.895264	34.373890
302.139374	909.539551	5905.580078	2617.684814	34.189980
302.509583	899.731628	5867.686035	2597.846191	34.181362
302.879791	899.657410	5801.259277	2581.425049	34.310570
303.249939	898.319885	5683.415527	2547.394531	34.462730
303.620087	902.257874	5572.778809	2533.053955	34.916794
303.990173	894.976257	5505.236816	2513.809570	35.113701
304.360260	899.657410	5487.181641	2528.893311	35.514488
304.730286	901.812195	5474.772949	2527.852783	35.557716
305.100281	906.493164	5451.813477	2528.818848	35.692219
305.470276	903.595398	5439.182129	2508.608643	35.387112
305.840179	902.257996	5457.758301	2506.304932	35.211212
306.210144	900.846191	5479.751465	2521.537109	35.394726
306.579987	906.641785	5514.971191	2555.864990	35.787872
306.949890	906.641846	5544.915527	2576.818115	36.008575
307.319702	919.124695	5629.471191	2616.347412	36.031799
307.689484	918.307373	5705.854980	2652.904541	36.231434
308.059265	923.582825	5815.153809	2714.352783	36.609303
308.429016	915.335266	5939.759277	2747.640381	36.467964
308.798737	906.270325	6100.921875	2798.612061	36.428658
309.168396	897.725525	6236.003906	2821.199951	36.031734
309.538055	894.902039	6307.854980	2840.295898	35.939602
309.907684	891.335449	6332.226563	2828.555908	35.604839
310.277313	894.084656	6350.207520	2833.237061	35.540848
310.646851	899.285828	6375.990723	2842.227783	35.476475
311.016388	916.747009	6373.018066	2847.800781	35.391457
311.385895	940.003723	6321.006348	2822.537354	34.984814
311.755371	935.099792	6255.025879	2793.113525	34.925552
312.124817	923.657043	6190.605469	2748.086182	34.639210
312.494232	912.288757	6134.655762	2724.680908	34.704418
312.863617	912.660339	6056.043457	2706.476807	34.876194
313.232971	918.084412	6013.765137	2732.928467	35.615341
313.602295	909.836731	5988.725098	2763.987061	36.507015
313.971619	916.226807	6035.164063	2801.435547	36.828125
314.340820	909.465332	6053.368652	2797.497314	36.704266
314.710083	917.787292	6120.761230	2798.017578	36.137604
315.079285	925.217468	6143.571777	2773.794922	35.424526
315.448486	932.424805	6164.153809	2755.813721	34.852512
315.817596	930.418640	6057.678223	2689.461182	34.307652
316.186707	919.421875	5878.831543	2624.000488	34.370594
316.555786	913.626221	5678.957031	2571.765625	34.795891
316.924866	906.270264	5527.825684	2541.078369	35.373547
317.293884	904.487000	5444.680176	2534.391357	35.899448
317.662872	910.208313	5422.463867	2537.511963	36.064087
318.031830	905.750183	5412.953125	2555.121826	36.594128
318.400757	910.059753	5470.240723	2572.657227	36.459023
318.769684	905.378662	5513.707520	2583.134033	36.407021
319.138550	902.555176	5573.075684	2591.530029	36.162453
319.507416	904.635559	5574.041504	2584.768555	35.981731
319.876190	900.920471	5539.862793	2562.923584	35.827202
320.244995	926.926453	5502.859375	2556.682373	35.615814
320.613770	923.954407	5431.603027	2531.196533	35.655891
320.982483	927.446594	5394.525879	2523.617676	35.731876
321.351166	909.316711	5323.938477	2508.311279	36.220425
