Jaz Data File
++++++++++++++++++++++++++++++++++++
Date: Fri Jun 04 13:26:04 2021
User: jaz
Dark Spectrum Present: Yes
Reference Spectrum Present: Yes
Processed Spectrum Present: Yes
Spectrometers: JAZA3586
Integration Time (usec): 30000 (JAZA3586)
Spectra Averaged: 10 (JAZA3586)
Boxcar Smoothing: 1 (JAZA3586)
Correct for Electrical Dark: No (JAZA3586)
Strobe/Lamp Enabled: Yes (JAZA3586)
Correct for Detector Non-linearity: No (JAZA3586)
Correct for Stray Light: No (JAZA3586)
Number of Pixels in Processed Spectrum: 2048
>>>>>Begin Processed Spectral Data<<<<<
W	D	R	S	P
191.335022	0.000000	0.000000	0.000000	0.000000
191.713211	311.477020	312.814453	317.421234	444.449524
192.091385	633.207764	632.910583	635.659790	-825.097534
192.469528	961.923035	960.808533	952.560852	840.032837
192.847641	980.052917	975.892029	956.053040	576.796936
193.225739	992.610046	980.275879	956.127441	295.784912
193.603790	996.250793	976.857910	977.229309	98.084869
193.981842	998.479980	981.761902	986.665771	70.667267
194.359863	1002.269348	993.427429	990.901062	128.572617
194.737854	1008.362244	1007.024719	988.300476	1499.917847
195.115829	1014.380798	1011.705872	996.919617	652.772339
195.493774	1009.105286	1009.996887	1008.287903	-91.675797
195.871704	1005.092957	1001.600769	1011.705811	-189.361374
196.249603	1006.578918	1002.789551	1002.938171	96.077957
196.627457	1010.442688	1001.675049	1001.600769	100.847206
197.005310	1014.232178	1007.322021	992.015625	321.505798
197.383133	1008.956726	999.074402	993.575989	155.638870
197.760910	1008.808105	996.473816	991.867126	137.348633
198.138687	999.743164	995.730774	993.575989	153.703278
198.516449	996.473816	993.798889	1002.492371	-224.998856
198.894180	987.260254	990.975403	1000.857666	365.999115
199.271866	985.328369	985.774170	996.993896	2616.758057
199.649536	986.740173	987.557434	990.752441	490.941010
200.027191	995.879395	990.380920	990.975342	89.189339
200.404816	1000.931885	998.331360	993.798828	274.292969
200.782410	1001.526367	1013.191895	995.953796	-47.769558
201.159988	993.650208	1033.104980	996.622375	7.533101
201.537537	989.043457	1034.442505	995.210693	13.584506
201.915070	987.483154	1032.733521	982.876404	-10.180582
202.292557	986.071350	1022.628357	981.316101	-13.007764
202.670029	990.752441	1031.767578	983.099304	-18.659300
203.047485	987.037292	1032.659180	985.625549	-3.094443
203.424911	993.501709	1033.030762	981.018799	-31.579077
203.802292	994.393311	1027.532349	974.703125	-59.416889
204.179688	989.415039	1024.857544	977.229309	-34.381683
204.557037	989.935242	1026.046387	982.430481	-20.782394
204.934357	985.105469	1025.080444	986.888672	4.460799
205.311661	991.124023	1022.851379	985.031067	-19.204111
205.688934	988.449036	1025.749146	981.910461	-17.529638
206.066177	986.442871	1022.702637	979.829895	-18.237780
206.443390	980.498718	1022.925598	977.675110	-6.655235
206.820587	974.777405	1023.148438	976.560730	3.686763
207.197769	975.594727	1024.040039	972.919861	-5.521413
207.574921	976.560730	1026.937866	978.641174	4.129739
207.952042	980.944580	1025.972046	985.699890	10.560910
208.329147	978.492676	1032.807861	984.213867	10.533319
208.706223	988.597717	1036.448730	990.306641	3.571342
209.083267	985.254089	1043.804565	983.247864	-3.426489
209.460297	984.139465	1034.962646	989.860840	11.257411
209.837280	970.170593	1031.098999	975.446106	8.658544
210.214264	975.817566	1026.120605	977.898132	4.136065
210.591217	979.161194	1026.937988	974.851746	-9.019961
210.968124	984.585388	1026.640747	977.823914	-16.077559
211.345016	982.727783	1025.823364	974.628845	-18.792967
211.721893	983.470886	1028.572632	972.548340	-24.217569
212.098724	985.774231	1025.526123	968.313049	-43.925411
212.475555	982.579285	1022.702637	969.278992	-33.148510
212.852356	983.768066	1024.411621	973.662903	-24.862894
213.229126	973.960144	1024.040039	983.322266	18.694372
213.605865	967.867249	1021.365051	986.517273	34.861290
213.982590	961.254333	1026.714966	978.864014	26.901176
214.359283	966.975647	1027.458008	969.650452	4.422454
214.735931	972.696960	1023.297058	960.957092	-23.201275
215.112579	980.870300	1020.101990	969.501953	-28.977461
215.489197	983.322205	1018.170105	963.037598	-58.208981
215.865799	985.402649	1020.919373	961.774414	-66.527069
216.242355	981.241699	1023.594238	960.659912	-48.596348
216.618896	989.712341	1033.402222	970.467773	-44.048115
216.995407	986.963074	1032.213379	976.263367	-23.645601
217.371902	984.065247	1022.182617	967.347107	-43.859634
217.748367	973.811523	1014.009216	966.306824	-18.669479
218.124802	970.096375	1014.380676	966.083984	-9.060525
218.501236	968.461670	1019.656250	971.210876	5.370112
218.877609	970.616455	1020.027832	976.189209	11.278281
219.253983	970.616455	1025.080444	976.857910	11.459784
219.630295	977.303711	1029.390015	981.761902	8.559238
220.006592	975.148926	1033.030762	976.560730	2.439114
220.382889	981.464661	1030.132935	978.269531	-6.565117
220.759140	980.052917	1032.659180	969.204651	-20.621626
221.135391	981.464600	1044.770630	970.467773	-17.370899
221.511581	978.269531	1045.067749	967.124207	-16.685062
221.887772	975.446106	1039.049316	965.043762	-16.355061
222.263931	975.297424	1031.470337	964.523621	-19.179714
222.640060	974.182922	1034.219604	965.043762	-15.222627
223.016159	972.696960	1033.179321	974.703125	3.316941
223.392212	977.452332	1025.749023	979.086914	3.384461
223.768265	981.539001	1031.693359	981.761719	0.444064
224.144302	989.489258	1034.888306	977.749451	-25.859148
224.520294	982.727722	1045.067749	972.771179	-15.971349
224.896286	981.687500	1049.674561	970.096375	-17.049017
225.272217	967.718567	1049.377319	977.006409	11.373970
225.648148	967.049866	1046.702271	984.436707	21.828394
226.024048	962.740295	1049.600220	988.597656	29.769035
226.399902	971.210876	1062.603149	985.922852	16.097614
226.775772	978.715515	1067.432861	983.396545	5.276341
227.151581	985.031189	1067.804443	980.870178	-5.026999
227.527374	986.963074	1075.383301	982.504883	-5.042049
227.903137	980.870300	1083.482300	989.786560	8.689296
228.278870	976.263428	1092.993042	996.993896	17.759392
228.654572	967.495789	1100.646118	994.170349	20.033417
229.030273	966.455505	1118.850464	983.990906	11.506549
229.405930	962.814697	1131.407471	979.235413	9.739869
229.781555	968.387390	1125.983521	980.052795	7.402089
230.157181	976.189148	1126.280640	979.161316	1.980237
230.532761	983.470886	1120.039185	975.966309	-5.495110
230.908325	981.390320	1126.429321	971.953918	-6.506113
231.283859	975.074646	1116.546997	973.588562	-1.050441
231.659332	970.839355	1116.992798	981.910461	7.574988
232.034821	967.495667	1112.906128	989.192139	14.920847
232.410263	968.238770	1119.816284	993.501709	16.666679
232.785690	966.604065	1116.621338	982.950684	10.896491
233.161087	967.718689	1106.590454	977.898132	7.330103
233.536469	973.439941	1103.915649	982.207703	6.719842
233.911804	971.953918	1105.698853	986.888733	11.166639
234.287140	975.520508	1118.850342	981.464600	4.147142
234.662430	964.969421	1115.581055	976.189148	7.449442
235.037704	974.108704	1126.949341	981.761902	5.007306
235.412933	977.749512	1133.710938	986.220032	5.431163
235.788162	982.579285	1146.639648	978.046692	-2.762759
236.163345	979.830078	1142.552856	968.610291	-6.895032
236.538513	978.715393	1139.209351	969.799072	-5.555549
236.913635	976.040527	1136.757324	967.941467	-5.039336
237.288742	974.182922	1135.494019	972.028137	-1.335795
237.663834	973.291321	1140.843872	970.987976	-1.374700
238.038879	970.690735	1144.336060	977.526611	3.936689
238.413910	974.183044	1151.915039	976.263489	1.170551
238.788910	972.473938	1156.224609	972.548340	0.040491
239.163879	979.607117	1156.670532	976.263428	-1.888413
239.538834	975.594727	1161.945923	980.052917	2.392360
239.913757	976.634949	1177.995483	986.814453	5.055362
240.288651	977.526611	1202.143677	980.647278	1.389327
240.663528	981.910461	1231.418945	976.932129	-1.995256
241.038361	982.504883	1261.140015	982.207703	-0.106656
241.413177	973.662781	1291.529907	985.774231	3.810224
241.787979	970.319275	1328.755615	988.523438	5.078772
242.162735	968.907532	1368.581909	990.380920	5.372721
242.537476	972.325439	1401.869507	991.198242	4.393682
242.912170	973.885742	1423.194214	993.873230	4.448500
243.286865	971.879639	1427.800903	996.325195	5.361794
243.661514	971.953918	1417.918823	1007.693542	8.013999
244.036148	967.644348	1389.460938	1004.795715	8.807469
244.410751	977.675110	1368.433105	999.074402	5.476354
244.785339	986.145691	1359.665527	993.204529	1.889816
245.159882	993.724548	1374.005859	1003.755432	2.637753
245.534378	985.476990	1403.949829	1007.321960	5.220164
245.908890	980.721619	1468.964722	1005.613037	5.098161
246.283356	972.919861	1549.954712	1002.566589	5.137771
246.657791	972.102539	1637.111816	1005.984558	5.094969
247.032196	970.393555	1702.275391	1010.294128	5.451778
247.406586	970.913574	1749.011719	1019.879150	6.292982
247.780960	971.507996	1759.785645	1023.520020	6.598186
248.155289	974.703125	1744.479370	1024.634399	6.486466
248.529602	971.582336	1691.873047	1016.238281	6.199711
248.903870	975.371826	1628.195435	1003.161072	4.256777
249.278122	971.359436	1558.722534	996.250793	4.237814
249.652344	966.232605	1513.769409	990.752502	4.478219
250.026550	965.043762	1483.899780	986.814453	4.195902
250.400711	967.272766	1475.651978	994.393372	5.334720
250.774857	981.687500	1483.825317	997.291199	3.107453
251.148987	989.117859	1504.481445	1007.990723	3.662048
251.523071	988.449036	1533.162476	1003.012390	2.673581
251.897125	988.077576	1547.948608	1004.424133	2.919701
252.271164	980.795959	1562.660522	996.102234	2.630556
252.645187	985.105469	1557.310669	993.353027	1.441364
253.019165	978.121094	1539.701172	987.185974	1.614174
253.393112	981.018799	1521.273926	992.461426	2.118004
253.767044	980.350098	1500.023438	990.529541	1.958816
254.140930	986.814453	1492.964478	990.678162	0.763352
254.514801	988.820740	1475.800659	989.415039	0.122038
254.888657	984.882629	1478.029663	993.204407	1.687484
255.262466	981.761902	1480.258789	999.743164	3.607096
255.636276	985.625671	1499.726074	1001.972229	3.179643
256.010010	990.306641	1524.840454	1007.024719	3.127600
256.383759	994.616211	1549.286133	1006.578918	2.156725
256.757446	987.111633	1576.035156	1015.420959	4.806962
257.131134	983.247864	1614.375122	1009.699707	4.191206
257.504791	974.554504	1676.120728	1016.758484	6.015680
257.878418	977.006409	1749.011719	1014.752258	4.889325
258.252014	980.647278	1824.280396	1021.588135	4.852922
258.625580	985.179871	1940.044067	1023.074158	3.968553
258.999115	982.356384	2078.841553	1031.916260	4.519886
259.372650	984.511169	2245.354004	1043.730347	4.696793
259.746124	984.956970	2378.281494	1050.566284	4.708832
260.119598	984.213928	2463.803955	1054.429810	4.745631
260.493042	979.161316	2470.714111	1050.937744	4.812195
260.866425	973.514343	2407.705322	1042.021362	4.776701
261.239838	974.851746	2301.749756	1029.538452	4.121395
261.613159	969.947754	2179.818848	1028.721191	4.857826
261.986511	973.217041	2069.776367	1026.566406	4.865160
262.359802	972.845520	1987.671875	1023.965820	5.037344
262.733063	979.384094	1954.087280	1019.953430	4.162225
263.106293	977.898132	1944.353638	1020.622253	4.420702
263.479523	983.470764	1934.694336	1025.674805	4.436816
263.852692	981.316101	1917.233276	1033.105103	5.533503
264.225861	974.777344	1897.617188	1031.619019	6.159430
264.598969	968.461609	1901.183594	1034.591187	7.089956
264.972076	971.730957	1923.623169	1030.653198	6.190012
265.345154	979.978577	1972.217163	1037.711792	5.818481
265.718201	979.012634	2028.315796	1038.752075	5.693249
266.091217	972.473938	2087.237549	1034.368164	5.552228
266.464203	980.052917	2144.302002	1033.996704	4.633355
266.837158	981.613281	2194.679443	1034.442505	4.355016
267.210114	984.436768	2234.059814	1044.176147	4.780592
267.583038	979.532715	2244.759521	1048.337158	5.438111
267.955902	974.034363	2246.096924	1048.782959	5.876173
268.328766	978.046692	2255.384766	1040.832520	4.915365
268.701569	977.452332	2269.948242	1034.665405	4.426558
269.074371	976.412109	2285.031494	1032.213379	4.264133
269.447144	973.588562	2310.443115	1041.203979	5.057799
269.819885	973.365662	2391.507080	1045.290649	5.071778
270.192596	975.891907	2503.258545	1048.857300	4.777202
270.565277	975.000244	2650.526611	1052.498047	4.625281
270.937927	971.508118	2775.503906	1055.916016	4.678941
271.310577	973.885803	2887.404053	1065.575317	4.791672
271.683136	973.365723	2952.567383	1067.804443	4.771556
272.055725	968.535950	2978.127686	1071.891113	5.143093
272.428284	965.935364	2954.721924	1066.689941	5.066133
272.800812	968.090149	2906.573975	1061.786011	4.833461
273.173279	971.433777	2817.039063	1059.556763	4.774747
273.545776	970.244934	2764.878662	1064.460815	5.249866
273.918152	972.994141	2715.021484	1069.067505	5.515032
274.290558	975.148926	2716.507568	1065.501099	5.188602
274.662964	984.733887	2715.021729	1052.275024	3.903463
275.035278	980.052917	2730.922607	1050.046021	3.997619
275.407593	978.789734	2767.627686	1053.835449	4.195222
275.779907	973.291321	2817.113281	1064.609375	4.952650
276.152161	974.925964	2869.645264	1069.067505	4.968627
276.524384	980.572998	2921.136963	1072.708374	4.747866
276.896606	983.768066	2960.294922	1072.634033	4.496067
277.268799	974.480164	2977.904541	1070.182129	4.776919
277.640930	967.198486	2981.025391	1064.163452	4.814960
278.013031	957.539124	2983.328369	1068.324463	5.468750
278.385162	963.929199	2989.198486	1067.655762	5.121618
278.757233	966.009583	2986.821045	1070.256348	5.158659
279.129272	969.056091	3013.867188	1074.937500	5.178053
279.501282	968.684570	3054.733398	1069.661987	4.840607
279.873230	974.182922	3131.413818	1067.507202	4.326115
280.245178	977.377991	3228.750244	1067.284302	3.993400
280.617126	977.452332	3361.603516	1083.185059	4.434816
280.988983	973.960022	3487.175049	1091.506958	4.677154
281.360870	975.074524	3596.474609	1099.457397	4.744902
281.732697	977.452332	3668.622314	1097.971313	4.478312
282.104492	972.102539	3716.176514	1101.537842	4.716903
282.476288	966.678467	3728.436279	1095.519409	4.665179
282.848053	966.604187	3722.343506	1090.466675	4.494710
283.219757	976.114807	3725.612549	1091.878418	4.210355
283.591461	981.018799	3703.024414	1098.788696	4.326585
283.963135	977.898132	3719.965820	1111.865845	4.885646
284.334747	969.724792	3770.863037	1121.005005	5.400670
284.706360	972.473938	3865.301758	1118.404663	5.044570
285.077942	975.371765	3956.099609	1118.404663	4.798590
285.449524	980.572998	4051.653076	1119.667725	4.529180
285.821014	978.195251	4086.278076	1128.435425	4.833854
286.192535	979.978516	4123.354980	1129.698608	4.763034
286.563995	983.693665	4116.593262	1127.618042	4.593967
286.935425	981.687500	4096.902832	1112.460327	4.197875
287.306824	982.950684	4027.132813	1109.636841	4.161583
287.678223	970.319275	3951.121826	1106.367554	4.564149
288.049561	970.467834	3905.128174	1113.500610	4.873912
288.420898	959.248230	3879.494141	1114.912231	5.330510
288.792145	966.678467	3912.632813	1120.930786	5.236073
289.163452	963.260559	4010.340820	1128.286743	5.415879
289.534668	970.690735	4155.379395	1122.268311	4.759573
289.905914	970.839355	4269.434082	1126.206421	4.710099
290.277039	976.857910	4380.517090	1125.760620	4.374783
290.648193	977.749512	4434.832031	1137.648926	4.625270
291.019318	972.622559	4435.872559	1136.460083	4.730745
291.390381	971.508057	4373.086426	1129.401367	4.641766
291.761475	973.142761	4291.354004	1121.376709	4.467285
292.132507	974.480164	4249.447266	1116.101196	4.324350
292.503510	977.006531	4236.146484	1128.584106	4.650846
292.874481	972.771240	4280.579590	1141.066895	5.087830
293.245422	985.254089	4358.374512	1147.308228	4.804280
293.616364	985.328430	4495.017090	1150.800659	4.714726
293.987213	984.808289	4636.563965	1144.781982	4.380734
294.358093	977.303711	4781.529297	1150.057495	4.541102
294.728943	971.433777	4901.824707	1154.441406	4.656219
295.099731	973.811523	5032.672363	1164.992432	4.710211
295.470490	983.842346	5141.971191	1168.187500	4.433368
295.841248	992.312805	5262.193359	1170.787964	4.179863
296.211975	992.015625	5379.962891	1172.422607	4.111421
296.582642	980.647278	5501.968262	1184.236816	4.502878
296.953308	974.405945	5553.014160	1191.741333	4.746757
297.323883	969.724792	5538.302246	1195.902222	4.950719
297.694519	975.223145	5427.739746	1179.332886	4.584143
298.065063	974.703125	5306.774902	1162.020264	4.323962
298.435608	983.322266	5130.156738	1163.952271	4.355853
298.806122	977.898132	4940.016113	1158.751099	4.564553
299.176575	978.715393	4739.770996	1157.933716	4.765107
299.547028	970.839355	4614.124512	1140.695313	4.662165
299.917450	969.650574	4554.459473	1142.775879	4.829415
300.287872	976.189148	4560.106934	1140.175171	4.575608
300.658234	977.006409	4548.589844	1138.020508	4.508199
301.028564	981.464661	4541.605469	1136.980347	4.368245
301.398865	977.006531	4489.296387	1127.246582	4.277553
301.769135	978.343994	4446.274902	1126.206421	4.263708
302.139374	972.251160	4400.281250	1126.132080	4.488903
302.509583	971.136658	4376.132813	1133.265259	4.761492
302.879791	975.074646	4318.919922	1132.596436	4.710798
303.249939	973.365662	4257.396973	1125.834839	4.642745
303.620087	971.507996	4186.363770	1119.890625	4.615530
303.990173	973.662842	4170.908691	1117.958740	4.513131
304.360260	981.316101	4175.887207	1115.060913	4.186628
304.730286	977.675232	4167.937012	1114.912231	4.301747
305.100281	972.176819	4154.265137	1117.141479	4.555645
305.470276	972.251038	4153.521973	1123.605835	4.757683
305.840179	972.548340	4181.979980	1127.320923	4.822430
306.210144	974.108704	4228.122559	1124.943237	4.635338
306.579987	970.765076	4262.004395	1122.862671	4.621286
306.949890	980.647278	4321.223145	1128.881226	4.437377
307.319702	980.127136	4391.662598	1137.426025	4.610795
307.689484	984.288086	4503.785645	1147.754028	4.644582
308.059265	977.600830	4619.623047	1143.741821	4.561779
308.429016	975.669006	4733.603027	1146.268066	4.539703
308.798737	974.405823	4803.150879	1144.187622	4.434398
309.168396	978.269592	4843.868652	1152.732422	4.513216
309.538055	982.207703	4866.456543	1152.063599	4.372941
309.907684	982.430603	4867.719727	1146.416626	4.220690
310.277313	979.532776	4884.140625	1145.079224	4.239771
310.646851	977.823914	4860.363770	1146.565186	4.346157
311.016388	977.675293	4862.593262	1154.738525	4.557708
311.385895	981.687561	4804.117188	1151.617798	4.445608
311.755371	977.898132	4762.729980	1146.416748	4.452473
312.124817	976.560730	4695.708984	1141.066895	4.423222
312.494232	976.114929	4626.236328	1138.763550	4.455978
312.863617	979.235657	4609.146484	1137.426147	4.357972
313.232971	977.303711	4625.047363	1135.197144	4.328523
313.602295	978.195313	4715.622070	1140.992554	4.355865
313.971619	985.476990	4784.277832	1140.472412	4.080114
314.340820	985.922852	4829.603027	1144.782104	4.132999
314.710083	980.275818	4819.869141	1145.004883	4.290274
315.079285	973.960022	4747.126465	1154.887207	4.795102
315.448486	976.634949	4665.021973	1158.082153	4.919419
315.817596	984.362366	4544.279785	1146.416626	4.552191
316.186707	988.671936	4444.565918	1137.351685	4.302208
316.555786	988.226135	4334.746094	1124.051636	4.058709
316.924866	983.545105	4269.657715	1121.971191	4.212457
317.293884	972.845520	4267.056641	1121.153687	4.502084
317.662872	974.628845	4275.081543	1130.961792	4.736712
318.031830	971.136536	4332.442871	1140.175293	5.028960
318.400757	978.343933	4352.059082	1137.797607	4.726353
318.769684	968.015930	4399.761719	1132.596436	4.795825
319.138550	968.090149	4392.405273	1125.834839	4.606606
319.507416	968.907471	4370.188477	1115.506714	4.310119
319.876190	972.028137	4303.241699	1107.259155	4.059512
320.244995	973.885742	4228.939453	1098.342896	3.823505
320.613770	980.572998	4190.970215	1102.355103	3.793366
320.982483	980.275696	4206.425293	1110.528442	4.037405
321.351166	984.362488	4251.081543	1123.828613	4.269303
321.719818	970.839355	4306.288574	1131.556152	4.818445
322.088440	969.353333	4420.640625	1137.351685	4.867701
322.457062	968.238770	4586.707031	1136.237183	4.642805
322.825623	970.913635	4768.525879	1138.466431	4.412056
