Jaz Data File
++++++++++++++++++++++++++++++++++++
Date: Fri Jun 04 12:55:20 2021
User: jaz
Dark Spectrum Present: Yes
Reference Spectrum Present: Yes
Processed Spectrum Present: Yes
Spectrometers: JAZA3586
Integration Time (usec): 40000 (JAZA3586)
Spectra Averaged: 10 (JAZA3586)
Boxcar Smoothing: 1 (JAZA3586)
Correct for Electrical Dark: No (JAZA3586)
Strobe/Lamp Enabled: Yes (JAZA3586)
Correct for Detector Non-linearity: No (JAZA3586)
Correct for Stray Light: No (JAZA3586)
Number of Pixels in Processed Spectrum: 2048
>>>>>Begin Processed Spectral Data<<<<<
W	D	R	S	P
191.335022	0.000000	0.000000	0.000000	0.000000
191.713211	424.640045	428.652374	422.931061	-42.593327
192.091385	846.753845	859.013672	847.794006	8.484305
192.469528	1283.133667	1284.322388	1270.427856	-1068.864258
192.847641	1300.743530	1286.997437	1279.344238	155.675446
193.225739	1322.068359	1296.508179	1289.523682	127.325699
193.603790	1320.879517	1312.483276	1301.857910	226.549103
193.981842	1316.569946	1320.507935	1311.665894	-124.531929
194.359863	1311.517334	1326.526489	1313.597778	13.861169
194.737854	1320.433716	1328.755615	1309.436890	-132.143219
195.115829	1324.743164	1333.882446	1307.950806	-183.738266
195.493774	1330.464478	1333.882446	1315.083862	-449.992859
195.871704	1333.287964	1328.012573	1321.845337	216.905777
196.249603	1341.015503	1325.783569	1326.972290	92.195862
196.627457	1339.083618	1321.325317	1319.021851	112.971214
197.005310	1337.448975	1324.074585	1323.925903	101.111687
197.383133	1336.260132	1323.703003	1317.312988	150.887543
197.760910	1337.746216	1323.257202	1320.433594	119.487930
198.138687	1332.767944	1327.120972	1318.873291	246.054901
198.516449	1331.504761	1324.891846	1316.421387	228.089645
198.894180	1329.275757	1324.594604	1309.288208	426.979248
199.271866	1323.405762	1314.043579	1310.328491	139.681854
199.649536	1314.786621	1314.340820	1309.362427	1216.730591
200.027191	1305.350220	1314.266479	1313.003418	85.834175
200.404816	1308.693726	1323.405762	1301.560913	-48.482838
200.782410	1306.984863	1334.402466	1302.155273	-17.614923
201.159988	1308.470825	1347.999878	1300.669189	-19.736460
201.537537	1319.021973	1351.120605	1307.207764	-36.805958
201.915070	1320.730835	1354.910034	1308.693726	-35.217648
202.292557	1328.607056	1349.931763	1307.950684	-96.865913
202.670029	1321.696777	1358.328125	1308.619507	-35.699669
203.047485	1324.445923	1354.315674	1300.743408	-79.352905
203.424911	1316.644165	1357.807861	1297.399780	-46.750866
203.802292	1313.523438	1351.194946	1295.913696	-46.745518
204.179688	1312.409058	1339.603638	1296.285278	-59.290413
204.557037	1314.340820	1338.266357	1297.622681	-69.875710
204.934357	1311.665894	1337.300415	1291.975708	-76.811211
205.311661	1305.201538	1348.891724	1293.684692	-26.360258
205.688934	1300.371948	1336.185913	1292.347168	-22.406847
206.066177	1294.873535	1337.968994	1298.588745	8.620885
206.443390	1302.229492	1342.129883	1295.393555	-17.132507
206.820587	1311.814575	1350.749146	1295.244995	-42.557499
207.197769	1314.340820	1357.807861	1287.889038	-60.854805
207.574921	1309.808350	1355.132935	1292.198608	-38.852516
207.952042	1303.566895	1349.931763	1295.542114	-17.307890
208.329147	1304.681519	1337.448853	1298.291382	-19.501547
208.706223	1313.077759	1336.111450	1306.241821	-29.677994
209.083267	1313.077759	1348.148438	1303.864136	-26.271585
209.460297	1318.798950	1357.064819	1298.811523	-52.233040
209.837280	1305.944580	1354.687134	1287.220215	-38.414822
210.214264	1301.635010	1349.783203	1287.666138	-29.012245
210.591217	1299.034546	1337.449097	1288.632080	-27.079494
210.968124	1302.378052	1341.387085	1296.582520	-14.856898
211.345016	1308.842407	1343.096069	1301.189331	-22.342360
211.721893	1307.505005	1352.532593	1309.585449	4.620377
212.098724	1305.573120	1352.086670	1307.207764	3.514338
212.475555	1302.675415	1353.349731	1297.920044	-9.384184
212.852356	1304.161377	1352.458130	1292.347168	-24.461704
213.229126	1305.350220	1356.098999	1280.310181	-49.341164
213.605865	1304.458496	1352.681030	1287.443237	-35.284870
213.982590	1309.362549	1356.173218	1284.025391	-54.126888
214.359283	1309.659668	1347.479858	1291.009766	-49.312027
214.735931	1311.220093	1341.461304	1287.889038	-77.149872
215.112579	1301.189331	1335.740112	1291.752808	-27.312040
215.489197	1299.034546	1342.055786	1292.867310	-14.335329
215.865799	1299.703247	1345.102173	1294.799194	-10.802134
216.242355	1297.325562	1344.582153	1294.576294	-5.817744
216.618896	1293.758911	1341.164185	1293.015991	-1.567167
216.995407	1295.319336	1343.764771	1291.158325	-8.589067
217.371902	1300.148926	1345.770874	1287.443237	-27.849947
217.748367	1297.028198	1343.616089	1282.539307	-31.100124
218.124802	1300.074585	1346.142456	1274.588989	-55.321842
218.501236	1296.433960	1348.074219	1276.446411	-38.705360
218.877609	1302.303711	1352.755371	1285.585571	-33.136948
219.253983	1296.136719	1351.938110	1287.814819	-14.913426
219.630295	1302.155151	1357.807983	1286.923096	-27.369776
220.006592	1306.910522	1352.903931	1278.006836	-62.843105
220.382889	1313.597778	1354.241333	1281.424683	-79.159157
220.759140	1318.278809	1349.931763	1278.526978	-125.586479
221.135391	1308.470825	1357.956421	1282.984985	-51.501534
221.511581	1302.749634	1357.064819	1291.975708	-19.835938
221.887772	1295.913818	1357.287720	1294.056152	-3.026801
222.263931	1305.944702	1350.080444	1303.938477	-4.545580
222.640060	1308.025024	1354.018555	1302.229492	-12.600756
223.016159	1309.436890	1356.619019	1310.997314	3.307237
223.392212	1306.464722	1357.510742	1308.025269	3.057137
223.768265	1308.470825	1349.411743	1302.229492	-15.244732
224.144302	1308.025146	1348.520020	1294.724976	-32.844086
224.520294	1308.470947	1357.584961	1285.214233	-47.352501
224.896286	1302.006714	1370.885254	1283.728149	-26.537386
225.272217	1302.006714	1379.801636	1286.700317	-19.675316
225.648148	1308.768188	1379.801392	1294.724976	-19.769928
226.024048	1314.043579	1373.485718	1297.474121	-27.874935
226.399902	1316.569824	1362.711914	1299.034546	-38.002785
226.775772	1310.774292	1361.597290	1296.731079	-27.631611
227.151581	1307.356323	1365.683960	1297.399780	-17.070026
227.527374	1293.164551	1384.631226	1295.913696	3.005625
227.903137	1293.015991	1398.674438	1292.718872	-0.281207
228.278870	1296.731079	1412.197388	1302.601074	5.083730
228.654572	1310.031250	1420.890991	1303.566895	-5.831112
229.030273	1309.585327	1435.454102	1313.597778	3.187805
229.405930	1306.910522	1448.977417	1306.390259	-0.366210
229.781555	1302.823853	1453.138306	1303.789673	0.642533
230.157181	1296.879761	1451.578003	1302.303711	3.506149
230.532761	1295.839478	1445.410767	1295.839478	0.000000
230.908325	1295.913696	1437.311890	1299.257446	2.364776
231.283859	1301.040527	1427.503906	1300.892090	-0.117376
231.659332	1296.136719	1414.277954	1302.378174	5.283045
232.034821	1297.845581	1410.934204	1308.322388	9.264245
232.410263	1298.514282	1407.590820	1297.176880	-1.226114
232.785690	1299.331665	1412.940552	1304.087036	4.185739
233.161087	1296.433960	1418.364746	1302.898071	5.301460
233.536469	1301.114868	1417.473022	1307.579224	5.555567
233.911804	1303.789917	1419.256348	1300.669067	-2.702820
234.287140	1300.594849	1418.438965	1291.678589	-7.566148
234.662430	1303.789917	1429.955933	1294.056274	-7.714948
235.037704	1302.006714	1435.008423	1297.176880	-3.631407
235.412933	1312.854858	1436.717407	1292.718750	-16.256817
235.788162	1297.251343	1435.082886	1289.672241	-5.498815
236.163345	1301.858032	1437.088867	1291.678589	-7.527457
236.538513	1295.616577	1442.884644	1298.291504	1.816366
236.913635	1300.000366	1450.166138	1299.405884	-0.395884
237.288742	1291.975708	1453.212524	1297.102539	3.179690
237.663834	1286.997437	1458.785522	1303.418335	9.558811
238.038879	1291.529907	1458.116699	1308.916748	10.437106
238.413910	1300.966309	1468.964844	1317.090088	9.597571
238.788910	1313.597778	1468.370239	1312.186035	-0.912141
239.163879	1314.786621	1478.104004	1304.607300	-6.232846
239.538834	1312.334717	1478.772583	1300.446167	-7.142936
239.913757	1305.721802	1495.936646	1301.486450	-2.226615
240.288651	1300.223267	1508.345215	1310.997192	5.176737
240.663528	1298.960327	1529.298706	1314.563721	6.774118
241.038361	1301.040649	1541.484253	1316.272583	6.334930
241.413177	1309.288208	1571.651245	1307.504883	-0.679717
241.787979	1310.551392	1610.140015	1303.864136	-2.232146
242.162735	1307.950806	1656.876343	1309.362427	0.404562
242.537476	1300.074707	1675.006226	1320.136353	5.350749
242.912170	1300.074829	1676.789429	1327.195190	7.199180
243.286865	1295.913696	1665.941284	1317.833008	5.923697
243.661514	1297.771362	1655.390503	1315.381226	4.924195
244.036148	1296.359741	1646.994141	1306.093262	2.775974
244.410751	1299.257324	1641.421509	1310.848511	3.387609
244.785339	1299.257446	1636.963257	1309.956909	3.168279
245.159882	1297.325562	1650.189087	1316.124023	5.327403
245.534378	1295.170776	1678.275513	1319.541992	6.361502
245.908890	1290.563965	1730.956055	1326.006348	8.047915
246.283356	1291.827148	1793.964844	1327.343750	7.073080
246.657791	1297.102539	1862.992188	1343.318970	8.167040
247.032196	1304.458618	1920.130859	1347.628418	7.011815
247.406586	1302.898071	1966.570190	1352.978149	7.545907
247.780960	1307.876587	1974.817749	1343.021606	5.269583
248.155289	1313.226440	1975.709351	1340.941284	4.183481
248.529602	1318.056030	1928.229858	1340.049683	3.604490
248.903870	1310.105591	1877.183960	1340.272461	5.319700
249.278122	1302.155151	1814.621094	1332.842285	5.988132
249.652344	1301.040649	1775.983765	1328.904297	5.866734
250.026550	1304.087036	1756.293457	1327.343750	5.142942
250.400711	1299.851807	1741.878540	1331.133301	7.076833
250.774857	1297.325562	1741.061523	1330.018677	7.367696
251.148987	1304.978638	1754.658691	1319.467651	3.222072
251.523071	1309.882690	1771.896973	1318.947632	1.962048
251.897125	1315.455444	1790.844116	1316.941406	0.312578
252.271164	1306.464722	1793.741821	1320.062134	2.790489
252.645187	1298.662964	1794.931030	1322.885620	4.880962
253.019165	1299.851807	1788.912476	1320.507935	4.223633
253.393112	1298.737183	1778.287109	1322.885620	5.035646
253.767044	1297.697144	1760.008667	1320.656616	4.966234
254.140930	1299.257324	1736.677734	1320.359375	4.824203
254.514801	1303.418335	1718.250610	1329.572998	6.304877
254.888657	1312.631958	1716.095703	1325.560547	3.204399
255.262466	1300.966431	1722.931274	1329.201538	6.691341
255.636276	1295.245117	1747.228516	1320.879395	5.671509
256.010010	1289.746704	1772.268555	1318.873291	6.036325
256.383759	1302.303711	1798.571655	1326.749390	4.925903
256.757446	1302.526733	1826.509399	1326.452271	4.566093
257.131134	1311.442993	1860.763062	1323.331421	2.164208
257.504791	1309.882690	1901.332397	1322.811401	2.185936
257.878418	1315.752563	1956.539063	1336.185669	3.188754
258.252014	1311.443115	2031.956421	1352.755371	5.733726
258.625580	1306.984863	2133.454102	1356.247559	5.960620
258.999115	1300.520508	2256.276367	1353.349731	5.527481
259.372650	1303.269653	2378.578857	1356.247559	4.926760
259.746124	1300.000366	2486.614990	1365.238159	5.497808
260.119598	1304.235718	2543.679443	1372.371094	5.497254
260.493042	1300.074707	2545.462646	1369.176147	5.548588
260.866425	1304.904419	2502.367188	1363.900757	4.926778
261.239838	1308.025024	2416.175781	1357.065063	4.425394
261.613159	1309.882690	2321.439941	1358.402466	4.796543
261.986511	1304.087158	2227.075439	1355.058960	5.522476
262.359802	1299.554565	2161.020508	1357.213501	6.693119
262.733063	1297.102661	2133.156982	1354.167114	6.825448
263.106293	1298.142822	2118.519287	1355.950317	7.046460
263.479523	1302.303711	2111.980469	1348.594360	5.717176
263.852692	1305.127319	2108.339600	1349.708862	5.550406
264.225861	1301.932251	2105.144775	1348.297241	5.772444
264.598969	1298.291504	2114.061279	1359.442505	7.496110
264.972076	1299.777466	2131.002197	1357.807983	6.981327
265.345154	1303.864258	2167.113037	1363.603516	6.920283
265.718201	1300.223267	2210.728760	1354.761597	5.989896
266.091217	1305.573120	2258.728516	1357.807983	5.480204
266.464203	1305.424438	2308.808350	1358.328125	5.272527
266.837158	1313.151978	2347.966064	1361.820435	4.703111
267.210114	1304.235718	2380.213379	1367.987427	5.925003
267.583038	1310.402832	2390.541504	1362.266113	4.801539
267.955902	1301.783569	2405.402100	1363.306274	5.574635
268.328766	1302.749512	2389.129883	1359.591187	5.232207
268.701569	1293.981812	2403.024170	1362.711914	6.197248
269.074371	1292.272949	2419.742432	1369.324829	6.834054
269.447144	1295.170776	2463.878174	1364.272339	5.912649
269.819885	1302.229614	2532.608398	1363.529297	4.982180
270.192596	1308.768066	2613.747070	1363.529175	4.196321
270.565277	1311.442993	2737.089111	1380.395874	4.836606
270.937927	1304.309937	2847.577393	1386.637329	5.334616
271.310577	1307.653442	2934.437500	1397.485718	5.522078
271.683136	1304.458496	2992.616455	1395.033569	5.365320
272.055725	1313.151978	2996.406006	1405.287476	5.473654
272.428284	1309.437012	2981.619873	1401.869507	5.527655
272.800812	1299.331665	2935.626221	1408.185181	6.652440
273.173279	1293.981812	2876.704102	1402.017944	6.825969
273.545776	1289.598022	2841.781982	1404.247070	7.386305
273.918152	1304.012817	2807.454102	1395.925171	6.113465
274.290558	1303.715698	2797.943359	1386.265991	5.524613
274.662964	1307.430786	2797.794922	1381.436157	4.965590
275.035278	1300.743408	2814.810303	1378.686890	5.147955
275.407593	1303.269653	2844.976807	1388.123413	5.503883
275.779907	1307.430664	2886.363525	1383.516724	4.818828
276.152161	1311.220215	2931.316650	1393.101685	5.054111
276.524384	1308.322388	2975.526611	1399.194458	5.450566
276.896606	1306.316162	2998.634766	1399.194458	5.488227
277.268799	1304.830200	3004.430664	1403.727051	5.818830
277.640930	1307.430664	3003.984619	1398.377319	5.360670
278.013031	1306.093140	3007.253906	1418.810547	6.625912
278.385162	1302.006470	3010.968994	1412.346069	6.456525
278.757233	1295.839478	3017.210693	1411.157227	6.699180
279.129272	1299.851807	3044.033936	1403.950073	5.968314
279.501282	1301.932251	3075.240967	1403.430054	5.723640
279.873230	1305.052979	3142.262451	1407.442261	5.573087
280.245178	1300.297607	3229.121826	1402.909668	5.319928
280.617126	1299.034546	3337.752197	1422.897095	6.075513
280.988983	1301.412231	3441.033203	1438.203491	6.393247
281.360870	1298.440063	3537.775391	1453.658569	6.931454
281.732697	1297.028320	3619.954346	1448.680176	6.528484
282.104492	1296.136597	3657.179932	1446.748413	6.379036
282.476288	1297.325317	3658.443359	1443.924805	6.208901
282.848053	1299.851685	3638.975586	1443.479004	6.140218
283.219757	1300.891968	3636.969482	1442.587280	6.065522
283.591461	1302.452393	3626.269775	1441.398438	5.979215
283.963135	1295.839478	3662.678467	1443.181641	6.225272
284.334747	1295.467896	3707.408447	1444.593384	6.182801
284.706360	1293.758911	3793.897217	1440.804077	5.881482
285.077942	1301.040649	3872.806396	1443.776245	5.550101
285.449524	1294.204834	3949.263672	1450.983521	5.904904
285.821014	1294.427734	3972.817627	1458.413696	6.122558
286.192535	1291.604248	4002.835938	1462.872070	6.316975
286.563995	1296.359497	4000.607422	1458.710938	6.003571
286.935425	1295.096558	3988.124268	1460.642944	6.147222
287.306824	1296.285278	3911.889648	1451.578003	5.937164
287.678223	1298.662964	3856.534180	1448.160034	5.844590
288.049561	1297.696899	3808.534424	1446.748169	5.936317
288.420898	1299.926147	3807.197266	1448.977173	5.944751
288.792145	1302.155151	3832.608643	1455.664551	6.066477
289.163452	1306.761841	3916.496826	1455.887329	5.714200
289.534668	1297.696899	4027.579102	1460.642944	5.968977
289.905914	1293.684692	4122.537598	1457.076294	5.775896
290.277039	1295.988159	4208.877441	1468.147461	5.910259
290.648193	1300.594849	4249.224121	1476.915161	5.979738
291.019318	1296.508179	4258.585938	1480.035767	6.195908
291.390381	1291.975708	4208.431641	1468.296021	6.045704
291.761475	1296.582397	4126.996094	1457.596558	5.688715
292.132507	1305.870239	4090.067627	1453.509888	5.302773
292.503510	1305.127319	4095.565674	1460.271484	5.559849
292.874481	1309.065308	4156.419434	1460.791504	5.328673
293.245422	1304.904297	4233.174316	1463.689331	5.422486
293.616364	1302.898193	4345.297363	1465.472534	5.343623
293.987213	1296.582520	4482.312012	1475.354858	5.611661
294.358093	1288.632202	4586.261719	1485.905762	5.982284
294.728943	1293.238892	4688.427246	1499.800293	6.083945
295.099731	1297.399780	4763.918945	1506.487671	6.031638
295.470490	1302.006714	4871.286621	1515.626953	5.984968
295.841248	1306.018921	4955.100098	1519.044922	5.837799
296.211975	1302.823853	5066.331543	1529.521484	6.023573
296.582642	1301.709351	5171.172363	1544.307739	6.269562
296.953308	1296.508179	5220.955078	1541.038452	6.230949
297.323883	1291.901489	5207.803223	1534.351196	6.191414
297.694519	1294.724976	5113.513184	1521.719727	5.944157
298.065063	1293.758911	5003.545410	1518.078979	6.046711
298.435608	1300.817749	4873.887207	1512.283325	5.918317
298.806122	1295.839478	4701.059082	1500.915039	6.022388
299.176575	1297.771362	4553.122559	1488.729370	5.865973
299.547028	1290.786987	4430.819824	1480.407349	6.038802
299.917450	1298.142822	4389.582031	1468.816040	5.520833
300.287872	1299.851929	4382.077637	1472.605469	5.604831
300.658234	1305.796021	4389.433105	1472.605469	5.409503
301.028564	1299.331665	4372.121094	1478.921265	5.844513
301.398865	1299.851807	4353.173828	1474.834595	5.730898
301.769135	1297.251099	4301.013184	1471.862671	5.813096
302.139374	1298.365845	4275.081543	1469.187622	5.738599
302.509583	1288.632202	4232.654297	1459.305542	5.797285
302.879791	1284.322632	4192.308105	1456.779175	5.930448
303.249939	1287.889038	4135.317871	1453.138306	5.803456
303.620087	1289.746460	4085.089111	1459.008179	6.055133
303.990173	1295.244995	4064.729736	1454.995728	5.768247
304.360260	1297.696899	4069.262451	1455.441772	5.691544
304.730286	1305.350220	4063.912842	1449.125977	5.211981
305.100281	1308.842407	4046.749268	1453.509766	5.283867
305.470276	1302.898315	4046.303467	1452.320923	5.446611
305.840179	1299.480347	4073.498047	1454.401367	5.584717
306.210144	1295.468018	4113.621582	1452.692383	5.578985
306.579987	1295.913696	4158.054688	1452.618164	5.475078
306.949890	1295.988159	4187.181641	1460.122681	5.677051
307.319702	1296.359497	4263.118652	1466.512817	5.735326
307.689484	1302.898193	4344.851563	1472.977051	5.591107
308.059265	1306.613403	4446.645996	1476.766602	5.418835
308.429016	1304.978638	4526.967285	1481.596313	5.481636
308.798737	1304.830078	4600.007324	1484.345337	5.447818
309.168396	1302.898315	4644.812012	1481.150391	5.333833
309.538055	1306.167603	4654.693848	1477.286743	5.110282
309.907684	1306.018921	4653.431152	1477.658203	5.127522
310.277313	1298.737183	4667.474121	1484.345337	5.509726
310.646851	1296.731079	4694.148926	1490.215332	5.695038
311.016388	1298.960083	4679.288574	1492.147095	5.715036
311.385895	1310.477173	4629.653809	1489.175171	5.383805
311.755371	1315.827026	4560.478027	1481.150513	5.095263
312.124817	1306.316284	4514.484863	1466.438477	4.991078
312.494232	1306.390503	4473.617676	1461.460327	4.896075
312.863617	1304.235718	4458.163086	1465.101074	5.100478
313.232971	1307.653564	4471.686523	1473.051392	5.227437
313.602295	1300.743530	4547.920898	1478.327148	5.468861
313.971619	1299.034546	4624.750000	1484.271118	5.569827
314.340820	1297.919922	4648.154785	1487.540649	5.659924
314.710083	1301.263550	4631.288574	1483.528320	5.473376
315.079285	1299.331665	4575.561523	1476.766602	5.415827
315.448486	1303.418457	4512.775879	1477.955444	5.438378
315.817596	1305.573120	4390.770508	1474.017456	5.459759
316.186707	1304.755859	4286.747559	1466.289917	5.416986
316.555786	1304.458618	4211.032227	1461.163086	5.391381
316.924866	1303.492676	4186.289551	1462.723267	5.523476
317.293884	1307.282104	4173.286621	1462.797729	5.426217
317.662872	1306.464722	4185.025879	1463.094849	5.441265
318.031830	1307.653687	4208.877441	1469.559204	5.580594
318.400757	1310.105591	4244.245605	1464.135132	5.249563
318.769684	1310.402710	4275.527344	1461.460083	5.094470
319.138550	1296.359619	4273.446777	1448.457397	5.108946
