Jaz Data File
++++++++++++++++++++++++++++++++++++
Date: Fri Jun 04 14:03:21 2021
User: jaz
Dark Spectrum Present: Yes
Reference Spectrum Present: Yes
Processed Spectrum Present: Yes
Spectrometers: JAZA3586
Integration Time (usec): 519000 (JAZA3586)
Spectra Averaged: 10 (JAZA3586)
Boxcar Smoothing: 1 (JAZA3586)
Correct for Electrical Dark: No (JAZA3586)
Strobe/Lamp Enabled: Yes (JAZA3586)
Correct for Detector Non-linearity: No (JAZA3586)
Correct for Stray Light: No (JAZA3586)
Number of Pixels in Processed Spectrum: 2048
>>>>>Begin Processed Spectral Data<<<<<
W	D	R	S	P
191.335022	0.000000	0.000000	0.000000	0.000000
191.713211	267.935577	267.712708	266.375244	700.109558
192.091385	537.060059	543.450073	535.648315	-22.092957
192.469528	806.704590	817.404236	810.271179	33.333714
192.847641	811.831543	822.010986	823.199890	111.679459
193.225739	843.335876	843.707458	855.670105	3319.382324
193.603790	875.583252	872.536865	879.298401	-121.952637
193.981842	902.852356	903.000977	894.604797	-5549.404297
194.359863	902.703796	908.202148	896.313782	-116.216904
194.737854	915.038025	914.592224	918.381653	-750.027405
195.115829	908.276428	906.047363	917.564270	-416.669861
195.493774	909.762512	901.737793	909.539612	2.777672
195.871704	903.000977	893.490234	897.131042	61.718990
196.249603	921.353699	915.558105	918.158691	55.128220
196.627457	928.115234	915.409485	919.421875	68.420677
197.005310	926.629211	920.090576	915.483826	170.454315
197.383133	919.570496	905.675842	900.028809	140.641769
197.760910	930.121399	927.075012	926.554932	117.072044
198.138687	927.669434	931.310242	933.687988	165.308212
198.516449	922.096863	932.944885	931.087402	82.877220
198.894180	908.870911	909.985413	899.211426	-866.708679
199.271866	910.356934	900.325989	887.620178	226.666138
199.649536	907.161926	890.666687	890.963867	98.198387
200.027191	909.019531	902.778015	903.595398	86.904099
200.404816	893.936035	900.623230	896.908203	44.445660
200.782410	896.982422	916.672668	900.400391	17.358690
201.159988	890.072266	922.245361	912.140198	68.591263
201.537537	897.279602	942.455750	929.007019	70.230461
201.915070	892.524231	945.576416	926.629333	64.285950
202.292557	880.933044	940.746765	922.616882	69.689423
202.670029	883.607910	936.139954	931.756165	91.655022
203.047485	881.824707	928.189636	933.539368	111.538315
203.424911	885.465515	931.756104	925.960510	87.479973
203.802292	889.775085	937.031677	918.827454	61.477917
204.179688	888.140442	941.935608	921.353760	61.740337
204.557037	902.926697	940.078064	928.486755	68.799782
204.934357	898.617126	937.774658	927.297913	73.244621
205.311661	902.183594	935.842773	925.589050	69.536621
205.688934	904.115479	943.050110	916.969910	33.015419
206.066177	896.759521	925.366150	909.391052	44.155956
206.443390	892.078430	922.691223	905.081482	42.475876
206.820587	870.233459	912.957520	903.446777	77.739143
207.197769	882.790710	927.520813	920.610657	84.551437
207.574921	892.078430	931.384705	932.499084	102.835121
207.952042	900.400391	933.390808	936.214172	108.558136
208.329147	897.428223	944.907715	931.904724	72.613457
208.706223	1063.123413	1120.187866	1090.689575	48.307064
209.083267	1066.838501	1134.528198	1103.989746	54.884636
209.460297	1066.615601	1132.224854	1104.435669	57.644413
209.837280	889.700867	952.858093	931.756165	66.588257
210.214264	879.521301	940.969727	918.010071	62.635891
210.591217	868.598816	922.096741	908.647949	74.861099
210.968124	882.790710	940.523743	931.533203	84.427391
211.345016	894.753418	945.427734	943.124512	95.454849
211.721893	891.335449	951.594910	944.387634	88.039597
212.098724	887.991760	941.638367	939.112061	95.290840
212.475555	889.552185	947.879822	942.232727	90.318321
212.852356	897.799805	956.944763	953.824036	94.723595
213.229126	893.044434	957.390625	948.919983	86.835831
213.605865	879.149841	938.591980	926.852112	80.249924
213.982590	872.313965	927.520813	908.053528	64.737556
214.359283	868.970398	915.038025	898.914307	64.999893
214.735931	874.468750	921.130859	906.121765	67.834511
215.112579	886.431458	934.876770	915.112305	59.202522
215.489197	890.220886	951.223450	921.873962	51.888107
215.865799	887.471680	948.994385	928.932617	67.391281
216.242355	875.583252	942.752930	927.223633	76.880493
216.618896	880.933105	947.805603	934.802490	80.555367
216.995407	882.790588	955.458679	927.892395	62.065491
217.371902	880.561523	951.743469	918.158691	52.818405
217.748367	876.549133	942.901550	910.654114	51.399757
218.124802	879.744202	943.124451	916.969910	58.733925
218.501236	882.344727	942.678711	921.576660	65.024605
218.877609	876.400574	938.889343	916.301086	63.852295
219.253983	870.827881	939.112122	910.654114	58.324192
219.630295	878.703918	945.353516	921.725281	64.548569
220.006592	884.871094	950.703308	920.610779	54.289051
220.382889	887.917480	949.885986	916.969910	46.882572
220.759140	884.053711	948.845703	904.932800	32.224800
221.135391	889.032043	952.709473	912.140137	36.289299
221.511581	879.224121	948.325500	916.152588	53.440998
221.887772	879.818542	952.560852	922.616943	58.835636
222.263931	885.242615	970.987976	939.112061	62.824909
222.640060	899.211487	989.043457	942.084167	47.725414
223.016159	896.982422	999.445862	945.873535	47.715668
223.392212	888.214661	991.718445	924.920227	35.463020
223.768265	878.778259	994.096008	922.245361	37.693333
224.144302	876.400635	991.346924	915.558105	34.065884
224.520294	868.524597	983.842468	918.307373	43.170044
224.896286	879.224121	996.250977	928.338196	41.968208
225.272217	891.261047	1019.581970	943.347351	40.590656
225.648148	909.390930	1053.984009	960.957214	35.663036
226.024048	899.211487	1054.801392	948.548584	31.709703
226.399902	890.815247	1059.185303	942.975830	30.979727
226.775772	870.233459	1063.569214	926.629211	29.169851
227.151581	876.252014	1096.856812	942.381409	29.976408
227.527374	873.651428	1114.615112	941.043945	27.967915
227.903137	880.933105	1156.670532	957.539246	27.782278
228.278870	884.425293	1201.697998	977.303711	29.274002
228.654572	880.041504	1274.217407	989.638000	27.803957
229.030273	879.669922	1355.281616	994.021790	24.043116
229.405930	871.570984	1439.317993	986.963074	20.324562
229.781555	878.926941	1512.432007	988.151855	17.241364
230.157181	874.988831	1530.041626	989.340637	17.456884
230.532761	879.149719	1493.187500	987.111633	17.582293
230.908325	869.787598	1432.556641	991.644226	21.653044
231.283859	882.419128	1387.306274	998.108459	22.913898
231.659332	884.499573	1359.739868	993.353088	22.904942
232.034821	890.369568	1335.368530	987.037292	21.723135
232.410263	877.143616	1308.842407	974.182922	22.478476
232.785690	877.292236	1291.604248	974.703064	23.511465
233.161087	877.217957	1273.697266	971.433777	23.763111
233.536469	880.710205	1254.898682	971.805237	24.344692
233.911804	883.979492	1256.384644	974.703125	24.361540
234.287140	880.041504	1268.941895	979.681396	25.620930
234.662430	888.289063	1307.356323	992.387207	24.840439
235.037704	875.583313	1319.541992	994.319031	26.744768
235.412933	877.292236	1317.238647	987.631775	25.080223
235.788162	860.871399	1310.551392	978.418274	26.140118
236.163345	874.320129	1310.922974	987.408875	25.901972
236.538513	884.276672	1333.436646	1003.755432	26.600491
236.913635	889.403564	1336.334473	1007.916443	26.517046
237.288742	890.072266	1351.269409	1009.625305	25.922329
237.663834	883.830872	1348.371582	1006.430359	26.391548
238.038879	882.196228	1352.235229	1007.321960	26.620287
238.413910	875.063171	1342.724487	1003.235291	27.407040
238.788910	877.812317	1359.814087	1012.968994	28.040701
239.163879	878.852600	1371.033813	1016.015381	27.868349
239.538834	871.199402	1391.467163	1022.256836	29.034555
239.913757	874.691589	1422.005493	1037.488892	29.744778
240.288651	875.583191	1468.816284	1057.104858	30.598709
240.663528	877.217957	1537.992188	1074.640259	29.877422
241.038361	864.883606	1596.245483	1079.990112	29.411774
241.413177	867.187012	1695.959595	1104.509888	28.635464
241.787979	864.586487	1799.686157	1134.231079	28.835920
242.162735	874.691589	1933.282593	1165.958374	27.514570
242.537476	870.010559	2040.575684	1181.338989	26.596420
242.912170	896.982422	2177.292725	1206.007446	24.136728
243.286865	902.703796	2232.945557	1217.895874	23.694347
243.661514	907.161926	2242.307373	1212.397583	22.861603
244.036148	900.920471	2153.664307	1195.382202	23.505341
244.410751	891.335449	2062.271973	1174.131714	24.151289
244.785339	886.802979	1965.901367	1158.379517	25.166986
245.159882	879.669922	1930.087524	1169.227661	27.565964
245.534378	892.449951	1957.653687	1198.205688	28.703968
245.908890	890.146545	2059.968750	1258.093628	31.453247
246.283356	883.310730	2216.747314	1295.690918	30.926121
246.657791	867.558594	2437.946533	1346.588257	30.503906
247.032196	875.508972	2692.582275	1389.535156	28.288689
247.406586	872.165344	2925.892578	1418.587524	26.606365
247.780960	873.279846	3091.513428	1426.983887	24.961485
248.155289	868.598877	3118.410889	1415.541138	24.310575
248.529602	866.444031	3021.817383	1386.042969	24.107143
248.903870	869.936218	2823.354492	1351.863647	24.670980
249.278122	867.261414	2606.167969	1304.830078	25.163439
249.652344	862.877502	2415.655762	1267.307251	26.045557
250.026550	862.877441	2276.263916	1243.084595	26.900438
250.400711	888.363281	2187.249268	1250.812012	27.904585
250.774857	894.456116	2120.154053	1252.000854	29.170704
251.148987	892.152771	2085.157471	1247.914185	29.820623
251.523071	865.923889	2081.813721	1241.449829	30.884865
251.897125	881.601746	2129.887451	1277.486694	31.714291
252.271164	876.920715	2195.273926	1292.644531	31.533567
252.645187	876.177673	2252.263916	1299.777588	30.782949
253.019165	858.419250	2267.793213	1273.920288	29.481247
253.393112	883.162109	2262.220703	1279.567261	28.744619
253.767044	885.539856	2178.407227	1253.041138	28.425287
254.140930	894.010315	2094.073975	1242.267212	29.019867
254.514801	878.926941	1991.015747	1229.487183	31.522682
254.888657	883.905212	1956.464844	1232.830811	32.532047
255.262466	876.326355	1927.041016	1234.242554	34.064075
255.636276	894.753357	1942.941772	1245.387817	33.451469
256.010010	910.282532	1968.873413	1264.780884	33.487759
256.383759	922.765442	2022.148438	1296.508179	33.995678
256.757446	900.474670	2070.965576	1299.034546	34.050659
257.131134	889.626465	2131.893555	1330.241577	35.468628
257.504791	877.515137	2215.632568	1353.944214	35.604431
257.878418	872.982727	2333.551270	1396.445313	35.839645
258.252014	875.508972	2494.342529	1456.927734	35.915909
258.625580	886.951660	2686.563477	1547.205444	36.688679
258.999115	879.967102	2915.416016	1638.003418	37.241726
259.372650	870.456360	3182.980225	1728.355591	37.097961
259.746124	864.809387	3481.454102	1791.513062	35.415722
260.119598	864.140625	3785.575439	1854.447388	33.897957
260.493042	865.775208	3991.319336	1860.168579	31.815048
260.866425	862.357239	4040.284912	1833.642456	30.563477
261.239838	869.341797	3866.639404	1765.358276	29.894144
261.613159	861.985840	3582.802734	1686.894653	30.318424
261.986511	864.289307	3283.214111	1606.944946	30.701891
262.359802	864.809387	3051.538330	1545.793823	31.141693
262.733063	865.924011	2896.989014	1516.815796	32.046822
263.106293	870.084961	2793.559326	1504.778687	32.997253
263.479523	884.573914	2749.126221	1517.856079	33.964302
263.852692	888.066162	2718.142090	1509.088379	33.934231
264.225861	871.125183	2683.591553	1504.407227	34.940350
264.598969	874.320129	2652.458740	1509.162476	35.702633
264.972076	871.645203	2641.833252	1519.119141	36.576565
265.345154	881.750305	2670.811279	1564.518066	38.163471
265.718201	867.112793	2715.021484	1579.155640	38.532360
266.091217	901.143372	2824.469482	1651.303711	39.003281
266.464203	903.372559	2931.019531	1676.417969	38.125248
266.837158	902.332214	3041.804688	1709.482788	37.726616
267.210114	871.199402	3120.639893	1703.018555	36.978935
267.583038	873.502747	3181.122314	1719.736450	36.671284
267.955902	870.604980	3213.147217	1729.544556	36.666985
268.328766	881.155945	3208.168701	1731.401978	36.538094
268.701569	877.292236	3200.143799	1730.510376	36.731495
269.074371	878.406738	3198.955078	1738.089233	37.046524
269.447144	868.598816	3230.385010	1762.534790	37.849998
269.819885	863.769226	3292.725342	1801.692261	38.614246
270.192596	864.958008	3395.708740	1873.765991	39.862003
270.565277	890.146667	3550.852783	1980.390503	40.975735
270.937927	892.747131	3735.123047	2064.278076	41.216610
271.310577	893.118652	3948.966553	2131.819092	40.535408
271.683136	870.307800	4153.447754	2154.184326	39.105141
272.055725	869.862000	4307.625977	2153.590088	37.341949
272.428284	869.638977	4343.291504	2130.927734	36.310162
272.800812	863.694824	4277.235840	2105.962158	36.392338
273.173279	868.301575	4140.890625	2079.881836	37.022072
273.545776	871.570862	4038.352783	2048.526123	37.165657
273.918152	886.654358	3939.901611	2017.764771	37.046143
274.290558	882.493408	3875.852783	2000.006470	37.333073
274.662964	883.756531	3799.544189	1995.325195	38.122414
275.035278	875.211731	3758.529053	1984.179810	38.461533
275.407593	880.190125	3768.559814	2010.780273	39.142845
275.779907	884.276672	3840.707764	2059.894287	39.764759
276.152161	878.852600	3895.394531	2109.528564	40.797577
276.524384	879.372620	3979.207764	2143.485107	40.779991
276.896606	874.914551	4027.950439	2145.639648	40.301636
277.268799	879.818542	4085.237549	2155.447510	39.796013
277.640930	872.611145	4090.439209	2147.497070	39.619457
278.013031	873.428467	4085.832764	2155.224854	39.901466
278.385162	866.889832	4072.904053	2154.333252	40.157131
278.757233	871.868164	4064.358643	2169.639404	40.650749
279.129272	867.855774	4085.906494	2188.661133	41.043648
279.501282	871.050842	4108.940430	2210.282959	41.361267
279.873230	869.490479	4170.463379	2244.239502	41.646782
280.245178	864.958008	4265.570801	2309.700195	42.484760
280.617126	872.016785	4425.172852	2392.176025	42.783352
280.988983	868.004395	4597.332520	2464.101318	42.798512
281.360870	893.193054	4778.631348	2547.171631	42.568649
281.732697	883.830872	4945.663574	2592.421875	42.064533
282.104492	887.100281	5074.355957	2629.498779	41.611942
282.476288	873.502747	5156.831543	2617.313232	40.711575
282.848053	878.555420	5181.648926	2619.839600	40.465866
283.219757	884.351013	5183.135254	2607.654053	40.088150
283.591461	881.601807	5136.992676	2591.381592	40.179150
283.963135	883.087891	5087.804688	2591.456055	40.629803
284.334747	880.710144	5098.132324	2638.192383	41.671951
284.706360	889.552063	5171.543457	2704.916260	42.395329
285.077942	902.034973	5327.802246	2788.135498	42.616356
285.449524	901.366272	5445.943848	2831.156494	42.463577
285.821014	886.654358	5542.166016	2829.447510	41.731033
286.192535	869.564758	5653.693848	2848.246094	41.359283
286.563995	868.598816	5747.167480	2857.385498	40.765781
286.935425	878.704041	5800.293457	2868.902344	40.438122
287.306824	877.440918	5718.857422	2807.899658	39.873840
287.678223	869.193298	5577.756348	2742.736328	39.790123
288.049561	881.601807	5462.587402	2703.281494	39.766109
288.420898	884.722473	5336.421387	2688.644043	40.522095
288.792145	893.861633	5298.526855	2709.597412	41.223019
289.163452	875.731934	5309.598145	2767.107666	42.657482
289.534668	876.846436	5454.265625	2850.475342	43.116634
289.905914	871.570862	5621.372559	2924.629639	43.224094
290.277039	885.837097	5826.002441	2992.616455	42.645924
290.648193	902.926697	6017.480469	3038.981445	41.764244
291.019318	907.459167	6136.587891	3044.331055	40.864777
291.390381	881.676086	6108.353027	2995.216797	40.437565
291.761475	862.580261	6010.421387	2926.635742	40.095554
292.132507	862.283142	5892.057129	2898.846436	40.490154
292.503510	872.016785	5806.534668	2897.731689	41.051929
292.874481	909.465332	5798.955566	2971.440186	42.171570
293.245422	912.734680	5834.175293	3023.377686	42.886692
293.616364	917.787292	5989.542480	3108.900391	43.202263
293.987213	881.676086	6126.482422	3171.462891	43.658180
294.358093	875.806152	6340.845703	3250.372314	43.450119
294.728943	862.357361	6537.450684	3307.734375	43.089634
295.099731	860.202576	6759.987793	3358.483154	42.345280
295.470490	860.128235	6917.806152	3429.516602	42.415401
295.841248	871.422180	7023.242188	3495.645752	42.657681
296.211975	869.787598	7114.931152	3576.561523	43.342060
296.582642	870.530579	7278.471191	3653.836182	43.435261
296.953308	864.363525	7447.732910	3697.155029	43.029510
297.323883	864.214905	7554.729004	3683.334717	42.136070
297.694519	867.632813	7561.192871	3610.220703	40.973530
298.065063	874.245789	7480.798340	3533.762939	40.255745
298.435608	874.394348	7270.520996	3420.674561	39.809723
298.806122	871.347900	6948.642090	3302.310547	40.000740
299.176575	877.366516	6616.136719	3186.695313	40.240833
299.547028	875.657532	6392.040527	3125.395264	40.782845
299.917450	867.484314	6259.707031	3086.311768	41.148659
300.287872	857.899231	6173.070313	3072.268799	41.661304
300.658234	855.149963	6097.652832	3041.656250	41.707298
301.028564	862.728821	6033.306152	3021.594482	41.752895
301.398865	858.345032	5968.812012	2994.548096	41.800549
301.769135	867.558594	5911.450684	2966.461914	41.612774
302.139374	873.874329	5877.642090	2947.069092	41.432678
302.509583	869.193176	5839.673828	2917.867920	41.216835
302.879791	869.861877	5772.207031	2901.149658	41.435024
303.249939	863.471863	5682.449219	2870.016846	41.638397
303.620087	875.508972	5592.691406	2845.125732	41.754089
303.990173	871.719482	5519.429199	2822.760498	41.978546
304.360260	880.561523	5475.664551	2827.292969	42.365349
304.730286	886.208496	5456.123047	2820.754150	42.332207
305.100281	897.354004	5459.986816	2808.717041	41.891670
305.470276	886.282776	5458.724121	2806.264893	41.990307
305.840179	874.022888	5460.581543	2814.958740	42.317913
306.210144	860.797058	5468.680176	2830.784912	42.752552
306.579987	881.750488	5496.767090	2847.503174	42.594704
306.949890	890.815369	5536.221191	2876.704102	42.749519
307.319702	900.326111	5617.062500	2926.189453	42.950531
307.689484	877.812317	5704.368652	2983.179688	43.620491
308.059265	875.508972	5839.971191	3062.906982	44.061123
308.429016	860.054016	5948.229980	3134.683350	44.704224
308.798737	863.917725	6082.568848	3185.729248	44.490643
309.168396	860.202576	6199.150391	3210.026123	44.012859
309.538055	872.462585	6285.712891	3214.558594	43.265980
309.907684	875.434631	6297.155762	3205.642334	42.979115
310.277313	876.846375	6322.566895	3213.815430	42.913860
310.646851	873.131287	6336.981934	3219.165283	42.937374
311.016388	887.323059	6370.492676	3219.239502	42.528625
311.385895	913.700500	6334.529785	3204.899414	42.266579
311.755371	910.505554	6279.322754	3152.961670	41.768158
312.124817	894.456238	6213.639160	3105.036377	41.558640
312.494232	875.880432	6138.296387	3055.030518	41.409691
312.863617	873.279846	6075.064453	3041.433350	41.680954
313.232971	876.697754	6022.087402	3064.764404	42.524799
313.602295	861.911560	6013.021973	3098.423584	43.418056
313.971619	867.409973	6070.234863	3163.958252	44.140415
314.340820	864.289246	6100.625000	3182.757080	44.276527
314.710083	878.852600	6168.463379	3184.986084	43.597416
315.079285	885.539856	6170.543457	3145.308594	42.758133
315.448486	904.041199	6187.484375	3096.268799	41.492401
315.817596	912.065918	6070.086426	3016.987549	40.808708
316.186707	907.904968	5901.642090	2936.963623	40.632065
316.555786	890.072266	5695.525879	2872.468750	41.253056
316.924866	878.481018	5517.720215	2835.614502	42.186520
317.293884	881.304504	5430.042969	2833.014404	42.906624
317.662872	889.552185	5398.835449	2847.280273	43.415504
318.031830	875.583252	5429.448242	2857.236572	43.515854
318.400757	878.852539	5474.996094	2875.960938	43.451828
318.769684	867.112793	5520.470215	2885.991943	43.385429
319.138550	864.586426	5529.832031	2883.837158	43.282837
319.507416	859.905334	5513.335938	2868.902344	43.172386
319.876190	855.521484	5490.599609	2840.518799	42.825542
320.244995	887.025879	5484.209473	2842.970703	42.546589
320.613770	887.694580	5437.770508	2813.026611	42.314281
320.982483	898.171204	5387.839355	2810.723389	42.598969
321.351166	876.623474	5320.148926	2809.682861	43.502831
321.719818	873.651367	5312.198730	2848.543213	44.494102
