Jaz Data File
++++++++++++++++++++++++++++++++++++
Date: Fri Jun 04 11:48:45 2021
User: jaz
Dark Spectrum Present: Yes
Reference Spectrum Present: Yes
Processed Spectrum Present: Yes
Spectrometers: JAZA3586
Integration Time (usec): 40000 (JAZA3586)
Spectra Averaged: 10 (JAZA3586)
Boxcar Smoothing: 1 (JAZA3586)
Correct for Electrical Dark: No (JAZA3586)
Strobe/Lamp Enabled: Yes (JAZA3586)
Correct for Detector Non-linearity: No (JAZA3586)
Correct for Stray Light: No (JAZA3586)
Number of Pixels in Processed Spectrum: 2048
>>>>>Begin Processed Spectral Data<<<<<
W	D	R	S	P
191.335022	0.000000	0.000000	0.000000	0.000000
191.713211	383.699249	385.259644	381.841705	-119.043243
192.091385	766.209656	765.392395	763.163269	372.755798
192.469528	1150.726196	1154.069946	1143.370239	-219.991241
192.847641	1155.853149	1160.014038	1146.565186	-223.220673
193.225739	1163.877808	1177.029419	1163.209106	-5.084557
193.603790	1172.719727	1178.218262	1174.057373	24.327324
193.981842	1184.534058	1180.224365	1169.673462	344.818024
194.359863	1191.146973	1181.264648	1166.329956	251.125305
194.737854	1193.598999	1187.060181	1171.159546	343.172913
195.115829	1192.855957	1188.546265	1185.574219	168.961899
195.493774	1186.094360	1186.094360	1180.818848	0.000000
195.871704	1180.595825	1186.094360	1186.317261	104.053818
196.249603	1184.979858	1194.639160	1188.620605	37.691616
196.627457	1194.861938	1196.719604	1196.050903	64.003151
197.005310	1200.954956	1200.731934	1188.546387	5563.820313
197.383133	1193.004517	1199.914673	1190.775391	-32.258690
197.760910	1190.403931	1203.629761	1187.357422	-23.034538
198.138687	1194.193359	1204.744263	1186.465698	-73.241699
198.516449	1199.023071	1197.388306	1178.515381	1254.472778
198.894180	1197.611206	1189.215088	1178.738403	224.780106
199.271866	1198.057007	1184.385498	1176.955078	154.349670
199.649536	1192.632935	1188.546387	1181.264648	278.188019
200.027191	1191.221069	1192.781616	1178.515503	-814.173950
200.404816	1191.964233	1188.917847	1182.081909	324.394928
200.782410	1188.843628	1194.267578	1177.846680	-202.747955
201.159988	1185.945801	1204.595703	1180.521606	-29.084305
201.537537	1180.075806	1226.812134	1186.985840	14.785146
201.915070	1179.704224	1230.155762	1186.465820	13.402162
202.292557	1181.190308	1230.007202	1181.413208	0.456605
202.670029	1175.989136	1212.248901	1176.212036	0.614732
203.047485	1171.233765	1209.796997	1178.143799	17.918711
203.424911	1169.599243	1206.676147	1180.967407	30.661039
203.802292	1173.165649	1217.524414	1176.286255	7.034924
204.179688	1182.453491	1212.100220	1169.896362	-42.355865
204.557037	1185.648560	1207.790649	1170.490723	-68.457123
204.934357	1185.574219	1207.344849	1169.822021	-72.355263
205.311661	1177.326660	1210.762817	1171.159424	-18.444813
205.688934	1174.725952	1215.146606	1166.998535	-19.117496
206.066177	1177.252319	1201.029175	1170.862183	-26.875450
206.443390	1180.001465	1204.892944	1177.846680	-8.656718
206.820587	1182.304932	1206.973389	1181.784790	-2.108529
207.197769	1183.122192	1214.403687	1174.725952	-26.840918
207.574921	1182.973633	1211.282959	1165.586792	-61.417358
207.952042	1181.487427	1207.419312	1159.196655	-85.958931
208.329147	1178.961304	1210.762817	1162.688843	-51.168827
208.706223	1188.843384	1225.177490	1171.456665	-47.852337
209.083267	1187.431763	1224.360229	1170.267822	-46.478886
209.460297	1178.961304	1223.765869	1166.849976	-27.031460
209.837280	1169.822144	1209.945679	1164.546509	-13.148479
210.214264	1168.558960	1208.162231	1168.484497	-0.188022
210.591217	1167.964478	1212.248901	1175.543335	17.114048
210.968124	1163.357788	1212.843262	1170.490845	14.414446
211.345016	1163.952148	1217.004272	1172.274048	15.686270
211.721893	1156.373291	1216.558472	1170.044922	22.715942
212.098724	1153.549683	1214.849487	1179.407104	42.181900
212.475555	1153.178223	1217.227173	1172.422607	30.046370
212.852356	1168.707520	1210.911377	1162.317383	-15.141120
213.229126	1169.376221	1210.391235	1149.834595	-47.645054
213.605865	1171.085083	1205.933105	1154.812866	-46.694805
213.982590	1163.580566	1205.264526	1158.825317	-11.407863
214.359283	1166.701294	1204.075562	1165.809692	-2.385603
214.735931	1167.370117	1203.703979	1159.419800	-21.881289
215.112579	1173.016968	1207.567871	1164.695190	-24.085556
215.489197	1171.976807	1206.156128	1158.602417	-39.130062
215.865799	1169.896362	1202.440918	1164.992310	-15.068734
216.242355	1169.079102	1209.351074	1159.865356	-22.878803
216.618896	1170.044922	1218.787598	1157.784912	-25.152517
216.995407	1166.032593	1227.555298	1157.116333	-14.492633
217.371902	1160.980103	1223.097046	1157.041992	-6.339833
217.748367	1163.134766	1215.295288	1161.648682	-2.849059
218.124802	1166.701416	1221.016602	1164.249268	-4.514665
218.501236	1165.289673	1212.694702	1170.862305	11.755360
218.877609	1168.113159	1216.781372	1169.004639	1.831749
219.253983	1169.227661	1202.440918	1162.168823	-21.253073
219.630295	1176.286499	1212.546143	1156.967651	-53.279198
220.006592	1176.880859	1215.443848	1164.026489	-33.333439
220.382889	1178.366821	1219.827759	1167.890137	-25.268808
220.759140	1175.840576	1210.688599	1170.639404	-14.925300
221.135391	1171.902710	1208.013672	1169.673462	-6.173328
221.511581	1165.958374	1219.233398	1170.267700	8.088830
221.887772	1168.187500	1226.737915	1165.438110	-4.695765
222.263931	1166.032593	1223.171387	1164.397949	-2.860830
222.640060	1173.537109	1216.484253	1166.924194	-15.397799
223.016159	1167.221558	1215.146606	1170.564941	6.976276
223.392212	1174.354492	1222.502563	1167.741577	-13.734538
223.768265	1177.178101	1217.227051	1171.382324	-14.471731
224.144302	1183.568115	1225.103271	1169.153320	-34.705044
224.520294	1173.462891	1223.840210	1168.261719	-10.324431
224.896286	1162.540283	1232.162109	1160.608521	-2.774651
225.272217	1159.493896	1225.549072	1156.150391	-5.061687
225.648148	1169.450562	1230.007324	1154.961548	-23.926334
226.024048	1169.822144	1228.967041	1157.190552	-21.357027
226.399902	1167.592896	1239.220825	1160.831421	-9.439718
226.775772	1159.568237	1235.654175	1159.196777	-0.488211
227.151581	1165.883911	1249.548950	1159.271118	-7.903891
227.527374	1166.329956	1250.069092	1160.831421	-6.566267
227.903137	1171.679565	1254.750122	1165.884033	-6.976638
228.278870	1167.370117	1259.208130	1161.351563	-6.553446
228.654572	1173.314331	1262.848999	1165.884033	-8.298794
229.030273	1171.010864	1275.480469	1160.385620	-10.170656
229.405930	1170.193481	1276.446411	1167.890137	-2.167794
229.781555	1172.794067	1289.895142	1172.794067	0.000000
230.157181	1173.685669	1294.056152	1175.543335	1.543290
230.532761	1168.038818	1294.056152	1175.766235	6.132027
230.908325	1158.676636	1288.334839	1173.388550	11.346690
231.283859	1158.899536	1286.180054	1178.515503	15.411602
231.659332	1166.181274	1290.043823	1175.097534	7.198512
232.034821	1169.376221	1285.882813	1172.051147	2.295944
232.410263	1171.902466	1278.824097	1169.078979	-2.640706
232.785690	1167.667236	1273.251465	1172.496948	4.574274
233.161087	1169.598999	1279.938599	1166.998535	-2.356782
233.536469	1167.741577	1279.418579	1166.255493	-1.330698
233.911804	1165.363892	1277.115234	1159.345215	-5.385776
234.287140	1167.667236	1277.040894	1159.791138	-7.201093
234.662430	1173.091431	1286.774536	1160.757080	-10.849766
235.037704	1181.338989	1299.183105	1161.425903	-16.897820
235.412933	1181.264648	1301.040649	1165.809814	-12.903114
235.788162	1165.735474	1298.588745	1164.620850	-0.838989
236.163345	1156.224731	1290.564087	1171.902466	11.670247
236.538513	1152.212280	1294.204834	1169.970703	12.506587
236.913635	1155.853149	1301.858032	1173.091309	11.806563
237.288742	1162.614746	1301.932251	1168.410278	4.159945
237.663834	1159.791138	1301.635132	1168.038696	5.814528
238.038879	1169.747681	1302.452515	1167.667358	-1.567631
238.413910	1169.970703	1307.505005	1169.153320	-0.594312
238.788910	1169.747681	1315.083862	1173.463013	2.556371
239.163879	1164.472290	1323.628662	1176.137817	7.329601
239.538834	1162.391846	1337.969116	1174.131714	6.686440
239.913757	1165.512573	1340.123901	1168.930542	1.957473
240.288651	1170.119263	1348.668579	1169.450562	-0.374519
240.663528	1174.874634	1364.346558	1173.314331	-0.823501
241.038361	1180.521606	1400.531860	1174.948853	-2.532952
241.413177	1178.664063	1438.649292	1174.800293	-1.486150
241.787979	1176.806641	1472.011230	1182.230591	1.837353
242.162735	1175.246216	1500.766479	1190.552490	4.702096
242.537476	1175.246216	1516.369995	1198.502930	6.817676
242.912170	1173.388550	1528.109863	1200.137573	7.540856
243.286865	1166.032593	1518.004517	1197.016846	8.803047
243.661514	1168.187378	1513.100586	1187.803223	5.687183
244.036148	1168.187378	1497.571289	1176.880737	2.639279
244.410751	1172.199707	1489.695313	1175.469116	1.029749
244.785339	1165.883911	1481.521851	1175.320435	2.989667
245.159882	1165.586792	1497.868530	1180.967407	4.628788
245.534378	1161.202881	1527.143921	1184.311035	6.314721
245.908890	1160.979980	1575.589233	1187.654663	6.433692
246.283356	1163.729370	1636.814819	1192.930176	6.172417
246.657791	1163.803589	1706.510620	1197.313965	6.174672
247.032196	1163.580688	1770.411133	1201.995117	6.330340
247.406586	1164.695190	1815.067017	1206.453247	6.420643
247.780960	1168.484619	1828.887207	1203.704102	5.333032
248.155289	1168.261719	1810.311523	1205.190063	5.751632
248.529602	1166.552612	1761.197388	1195.456543	4.860705
248.903870	1161.277222	1706.436401	1200.954956	7.278193
249.278122	1160.979980	1662.226196	1200.954834	7.975093
249.652344	1155.927368	1627.898315	1199.840210	9.304141
250.026550	1164.249268	1600.926392	1194.861938	7.010367
250.400711	1164.620850	1582.425171	1191.444092	6.420049
250.774857	1174.057251	1583.613892	1196.422485	5.460840
251.148987	1168.930298	1596.245483	1192.187134	5.442548
251.523071	1168.113159	1620.468140	1188.546387	4.517078
251.897125	1163.803589	1637.260620	1182.379272	3.923415
252.271164	1168.187378	1657.842407	1187.580444	3.960557
252.645187	1174.131470	1654.573120	1192.038574	3.727217
253.019165	1177.475220	1654.647461	1190.255249	2.678284
253.393112	1178.515503	1638.449341	1185.722778	1.567024
253.767044	1178.515503	1613.632202	1187.060303	1.963795
254.140930	1171.828247	1584.951294	1192.930298	5.107934
254.514801	1163.506348	1572.542603	1198.131470	8.465050
254.888657	1158.305176	1578.041138	1191.964233	8.019103
255.262466	1161.128662	1593.124634	1190.552612	6.811163
255.636276	1172.199707	1599.960571	1185.202637	3.039766
256.010010	1175.766235	1613.929565	1187.803345	2.747174
256.383759	1177.326538	1631.762207	1190.552612	2.910439
256.757446	1170.490723	1667.055786	1198.205688	5.581336
257.131134	1172.125366	1707.179321	1194.639160	4.207761
257.504791	1165.883911	1747.674316	1195.159302	5.031948
257.878418	1167.295776	1800.354980	1192.855835	4.037546
258.252014	1167.072876	1870.570923	1198.651489	4.488799
258.625580	1169.599121	1976.526733	1199.097290	3.655615
258.999115	1173.091431	2103.510010	1200.508911	2.946790
259.372650	1171.902466	2242.010498	1207.121948	3.291208
259.746124	1174.131714	2349.823486	1216.855591	3.633935
260.119598	1175.914917	2406.367920	1223.319946	3.852648
260.493042	1173.388550	2409.562988	1221.313843	3.876904
260.866425	1174.428711	2355.916260	1221.536743	3.987180
261.239838	1168.633179	2268.907959	1222.279907	4.875757
261.613159	1163.803589	2167.633301	1220.050659	5.603248
261.986511	1163.060547	2085.826172	1213.586304	5.475470
262.359802	1165.883911	2037.083374	1209.648315	5.023466
262.733063	1166.478394	2002.978394	1207.493408	4.903170
263.106293	1165.512573	1986.706055	1204.149780	4.705007
263.479523	1158.973877	1971.102417	1197.834106	4.784985
263.852692	1162.614746	1967.461792	1200.360474	4.689801
264.225861	1156.224609	1959.213989	1203.927002	5.940601
264.598969	1162.020386	1958.545288	1207.642212	5.727608
264.972076	1167.221313	1976.600952	1206.676270	4.874716
265.345154	1176.434937	2015.312622	1206.156128	3.542971
265.718201	1177.623901	2060.711670	1210.317017	3.702137
266.091217	1179.630005	2110.791748	1217.227051	4.037649
266.464203	1184.459595	2160.946045	1220.496460	3.690462
266.837158	1180.893066	2207.533936	1221.982544	4.002322
267.210114	1179.184204	2238.740967	1217.227173	3.590461
267.583038	1173.834351	2248.028809	1220.273560	4.323166
267.955902	1178.961304	2261.180420	1221.016602	3.886024
268.328766	1169.896362	2265.935791	1229.635742	5.450477
268.701569	1164.769409	2285.700195	1224.657349	5.342697
269.074371	1159.716797	2302.641357	1222.651245	5.506439
269.447144	1171.307983	2326.418213	1218.713135	4.103951
269.819885	1178.292480	2376.052490	1225.326172	3.926804
270.192596	1181.190308	2465.661377	1232.756348	4.014574
270.565277	1174.725952	2581.648193	1241.821411	4.768953
270.937927	1177.103638	2701.498291	1240.706909	4.172362
271.310577	1177.029419	2780.630615	1243.530396	4.146977
271.683136	1181.041626	2834.797119	1244.124878	3.814545
272.055725	1171.605347	2859.762939	1254.081421	4.885567
272.428284	1170.490723	2848.617432	1255.938965	5.091883
272.800812	1165.140991	2819.936768	1258.093750	5.617174
273.173279	1166.998535	2747.640381	1260.025513	5.885393
273.545776	1162.614624	2709.300049	1259.208130	6.245194
273.918152	1168.781738	2664.718506	1252.372437	5.587850
274.290558	1164.769409	2662.266602	1238.552002	4.927061
274.662964	1163.283325	2652.532715	1234.539673	4.784716
275.035278	1161.277222	2674.303467	1240.781006	5.254620
275.407593	1168.335938	2687.752441	1244.793335	5.032023
275.779907	1176.806519	2724.755127	1252.743774	4.905670
276.152161	1177.252319	2765.770264	1253.412598	4.794424
276.524384	1181.413208	2811.540771	1261.140137	4.890840
276.896606	1173.091309	2844.531250	1254.898682	4.894425
277.268799	1170.416504	2855.007813	1251.257813	4.798868
277.640930	1163.060547	2867.490479	1253.709839	5.318452
278.013031	1170.267944	2871.057373	1258.242310	5.172561
278.385162	1177.846680	2892.381836	1262.626099	4.944746
278.757233	1188.620605	2898.846436	1256.087402	3.944906
279.129272	1188.174805	2925.520752	1251.926392	3.669482
279.501282	1173.834351	2943.799561	1253.709839	4.512828
279.873230	1165.215210	3005.396484	1262.180298	5.269322
280.245178	1166.701294	3088.912842	1263.814941	5.052183
280.617126	1168.558960	3204.676025	1267.232788	4.846177
280.988983	1172.942749	3308.551758	1262.551758	4.195947
281.360870	1172.571167	3404.996338	1273.102661	4.503241
281.732697	1176.063477	3466.370850	1279.938599	4.535423
282.104492	1173.685669	3499.583984	1286.105713	4.833403
282.476288	1169.004761	3511.175049	1279.641479	4.723683
282.848053	1175.023193	3506.791016	1277.412476	4.391058
283.219757	1173.016968	3510.877930	1272.359863	4.249308
283.591461	1173.611450	3487.769775	1275.480591	4.401996
283.963135	1168.336060	3508.722900	1272.954224	4.470123
284.334747	1166.849976	3569.651367	1287.889038	5.037415
284.706360	1167.890259	3659.260498	1294.576294	5.084995
285.077942	1172.422607	3750.504150	1299.331665	4.922616
285.449524	1177.549561	3834.094482	1294.947754	4.419206
285.821014	1179.407104	3860.323486	1294.056152	4.276487
286.192535	1173.537231	3893.759766	1299.554565	4.632611
286.563995	1167.518677	3876.150391	1300.223267	4.899322
286.935425	1163.654907	3864.558838	1299.554565	5.031636
287.306824	1167.592896	3792.113525	1290.118164	4.668482
287.678223	1173.983032	3713.872803	1286.700195	4.437876
288.049561	1180.521606	3666.393555	1281.424683	4.059062
288.420898	1173.165649	3650.344482	1285.808594	4.547227
288.792145	1171.159546	3690.690674	1287.814819	4.630039
289.163452	1166.924194	3781.785889	1292.644409	4.807910
289.534668	1174.205811	3891.233643	1297.102539	4.523205
289.905914	1167.815918	4000.755615	1300.074707	4.668606
290.277039	1171.233765	4079.516357	1301.337769	4.473568
290.648193	1176.732178	4127.144531	1300.074585	4.180514
291.019318	1181.710449	4131.603027	1306.836182	4.241705
291.390381	1175.394653	4094.154297	1308.099365	4.546613
291.761475	1169.376099	4036.569580	1304.681396	4.719085
292.132507	1168.558838	3992.433594	1295.319214	4.488881
292.503510	1171.902466	3973.486328	1292.421509	4.301818
292.874481	1167.147095	4019.182861	1293.610229	4.434136
293.245422	1170.490723	4092.593750	1296.730957	4.320184
293.616364	1173.016968	4219.279785	1314.117798	4.631932
293.987213	1176.880859	4340.690430	1325.486206	4.697038
294.358093	1170.490723	4442.262207	1338.043335	5.121159
294.728943	1168.187378	4547.623535	1331.578979	4.834878
295.099731	1162.094604	4641.765625	1332.619263	4.900597
295.470490	1170.119263	4767.113770	1333.956665	4.554842
295.841248	1162.391724	4860.363770	1338.637817	4.766020
296.211975	1168.261719	4963.718750	1342.427246	4.588789
296.582642	1167.593018	5049.390137	1347.108276	4.624540
296.953308	1180.967529	5088.250000	1355.207397	4.459362
297.323883	1175.097534	5076.881836	1355.355957	4.619897
297.694519	1164.100708	4989.798828	1351.640747	4.902112
298.065063	1152.880981	4884.734863	1336.557251	4.921850
298.435608	1155.035767	4732.785645	1330.538818	4.905403
298.806122	1164.918091	4571.475098	1313.895020	4.373240
299.176575	1170.713745	4409.940918	1312.557495	4.378938
299.547028	1168.187378	4311.712402	1308.916748	4.476801
299.917450	1168.856079	4277.162109	1315.455322	4.716371
300.287872	1163.357666	4286.301270	1317.312988	4.929814
300.658234	1171.159546	4277.533691	1313.969360	4.597315
301.028564	1169.747681	4250.487793	1309.288208	4.529448
301.398865	1174.354370	4208.580566	1306.910522	4.368697
301.769135	1170.342163	4164.370117	1306.241821	4.539024
302.139374	1167.370117	4113.992676	1313.226318	4.949945
302.509583	1163.803467	4074.835205	1310.402832	5.035994
302.879791	1162.465942	4040.061523	1307.727905	5.048032
303.249939	1168.633179	4004.768311	1296.136597	4.495675
303.620087	1177.103638	3962.638672	1293.387451	4.174559
303.990173	1181.636108	3946.960938	1287.814819	3.839647
304.360260	1181.338989	3939.604736	1287.591797	3.852160
304.730286	1180.670288	3938.118408	1291.604126	4.023061
305.100281	1182.081909	3930.836670	1300.594727	4.311509
305.470276	1174.354492	3935.443604	1301.560669	4.607101
305.840179	1164.843750	3955.208008	1293.610352	4.614688
306.210144	1159.345337	3985.375000	1293.015869	4.729976
306.579987	1168.856079	4013.758545	1294.427734	4.413918
306.949890	1173.685791	4058.563232	1304.012695	4.517589
307.319702	1172.942749	4135.986328	1305.127319	4.461108
307.689484	1167.444336	4244.022461	1312.334595	4.709461
308.059265	1169.153320	4352.653320	1316.867065	4.639979
308.429016	1171.605347	4428.813965	1323.182739	4.653598
308.798737	1170.044922	4499.550293	1327.046753	4.715470
309.168396	1164.026367	4535.215332	1336.928833	5.128828
309.538055	1163.952026	4554.236816	1339.529419	5.178839
309.907684	1169.970703	4546.063965	1340.049561	5.037742
310.277313	1170.044922	4559.363770	1331.207642	4.755018
310.646851	1171.679565	4556.911621	1331.133301	4.710275
311.016388	1164.695190	4552.676270	1328.012573	4.820493
311.385895	1174.280151	4495.537598	1328.161133	4.633214
311.755371	1176.732178	4448.355469	1328.606934	4.642183
312.124817	1177.103638	4386.535645	1335.739868	4.942813
312.494232	1167.890015	4343.736816	1339.157959	5.392828
312.863617	1162.465942	4318.771484	1342.724487	5.711061
313.232971	1164.769409	4339.650391	1343.764648	5.637857
313.602295	1168.410278	4408.529297	1351.417847	5.648174
313.971619	1167.890015	4480.825684	1350.823486	5.521794
314.340820	1165.735352	4517.977051	1355.727417	5.667613
314.710083	1172.274048	4519.462891	1350.897827	5.336531
315.079285	1177.400879	4470.200195	1345.250854	5.097486
315.448486	1177.623901	4397.532227	1345.993774	5.229027
315.817596	1173.983032	4278.647949	1347.851440	5.600231
316.186707	1171.456665	4186.958008	1348.074219	5.856988
316.555786	1173.908691	4103.664551	1342.130005	5.741820
316.924866	1172.422729	4052.469971	1337.003174	5.714505
317.293884	1171.308228	4034.043213	1339.306519	5.868454
317.662872	1170.416626	4040.359375	1344.359009	6.060831
318.031830	1170.119263	4074.538330	1358.476685	6.485201
318.400757	1173.834473	4110.575195	1365.609741	6.530208
318.769684	1176.286377	4135.317871	1358.253784	6.149559
319.138550	1181.116089	4149.360840	1354.018433	5.825070
