Jaz Data File
++++++++++++++++++++++++++++++++++++
Date: Fri Jun 04 11:43:14 2021
User: jaz
Dark Spectrum Present: Yes
Reference Spectrum Present: Yes
Processed Spectrum Present: Yes
Spectrometers: JAZA3586
Integration Time (usec): 32700 (JAZA3586)
Spectra Averaged: 10 (JAZA3586)
Boxcar Smoothing: 1 (JAZA3586)
Correct for Electrical Dark: No (JAZA3586)
Strobe/Lamp Enabled: Yes (JAZA3586)
Correct for Detector Non-linearity: No (JAZA3586)
Correct for Stray Light: No (JAZA3586)
Number of Pixels in Processed Spectrum: 2048
>>>>>Begin Processed Spectral Data<<<<<
W	D	R	S	P
191.335022	0.000000	0.000000	0.000000	0.000000
191.713211	403.835297	413.123077	399.748657	-44.000172
192.091385	811.311340	818.147278	805.887390	-79.344643
192.469528	1227.035034	1231.419067	1204.744385	-508.450745
192.847641	1239.889526	1226.886597	1207.344849	250.287277
193.225739	1250.737671	1243.307495	1213.066284	507.005310
193.603790	1255.344482	1251.777954	1226.663574	804.168823
193.981842	1258.465210	1273.177124	1239.666626	-127.777962
194.359863	1257.573608	1281.276123	1246.576782	-46.395187
194.737854	1264.186523	1280.681763	1252.372437	-71.621193
195.115829	1271.096680	1273.622925	1251.926636	-758.835449
195.493774	1282.242065	1270.576538	1259.579712	194.267715
195.871704	1281.424683	1272.656982	1263.369141	205.932480
196.249603	1276.817993	1278.749878	1268.718872	-419.234161
196.627457	1269.982178	1276.297852	1260.842896	-144.707947
197.005310	1269.090454	1275.109009	1259.802612	-154.320129
197.383133	1273.994507	1267.158691	1259.505493	211.957352
197.760910	1276.520630	1259.802612	1257.870728	111.555702
198.138687	1275.480469	1264.335083	1254.824341	185.333450
198.516449	1270.353516	1266.044067	1252.669556	410.353241
198.894180	1268.644653	1274.291626	1259.282471	-165.791183
199.271866	1269.759155	1272.582642	1257.870728	-421.054901
199.649536	1270.204956	1278.972778	1255.344482	-169.488770
200.027191	1267.084351	1277.783813	1243.901978	-216.668564
200.404816	1259.951294	1277.189453	1245.239380	-85.345039
200.782410	1252.892456	1284.619751	1251.703735	-3.746681
201.159988	1255.641724	1290.563843	1262.180298	18.723303
201.537537	1262.403198	1298.142822	1263.889282	4.158085
201.915070	1270.279419	1294.130493	1257.722168	-52.648575
202.292557	1269.536377	1303.121094	1249.697510	-59.071117
202.670029	1261.734619	1310.848633	1245.908081	-32.224079
203.047485	1254.081421	1316.941406	1247.097046	-11.111003
203.424911	1256.979126	1313.151978	1254.601440	-4.232802
203.802292	1257.127563	1309.511230	1255.344360	-3.404120
204.179688	1262.031738	1306.316284	1258.688110	-7.550327
204.557037	1254.601440	1312.631958	1250.217651	-7.554282
204.934357	1252.669556	1313.894897	1245.759399	-11.286431
205.311661	1252.446655	1315.158081	1240.632446	-18.839006
205.688934	1252.372437	1306.464722	1241.895630	-19.368393
206.066177	1249.028809	1301.040649	1239.889526	-17.571541
206.443390	1242.192871	1294.799316	1243.158813	1.836167
206.820587	1241.524292	1296.656860	1244.347656	5.121046
207.197769	1240.706909	1299.257324	1250.514771	16.751139
207.574921	1243.456177	1299.554565	1248.508667	9.006480
207.952042	1243.307495	1294.724854	1245.016357	3.323513
208.329147	1252.149536	1292.495850	1245.982300	-15.285749
208.706223	1254.006958	1297.994263	1249.994629	-9.121562
209.083267	1254.675781	1302.898193	1250.812012	-8.012394
209.460297	1252.520996	1306.539063	1236.991699	-28.748339
209.837280	1252.669556	1309.659668	1221.313843	-55.019566
210.214264	1252.075195	1309.956909	1219.456177	-56.354618
210.591217	1252.892456	1299.406128	1224.583130	-60.862377
210.968124	1249.400269	1293.907593	1233.425171	-35.893188
211.345016	1248.508667	1294.427734	1238.403442	-22.006598
211.721893	1246.428101	1297.548340	1237.734741	-17.005709
212.098724	1249.177368	1288.706421	1238.180542	-27.819605
212.475555	1249.994629	1282.242065	1238.254883	-36.405209
212.852356	1252.000854	1298.068481	1244.124756	-17.096819
213.229126	1251.555054	1306.093262	1238.626343	-23.705786
213.605865	1254.972900	1307.505005	1233.573730	-40.735413
213.982590	1256.533325	1294.130493	1231.047485	-67.786598
214.359283	1253.115356	1291.009766	1233.796631	-50.980412
214.735931	1248.434326	1292.941650	1229.264160	-43.071934
215.112579	1247.542603	1299.182983	1228.966919	-35.971237
215.489197	1249.400269	1301.114868	1224.583130	-47.988651
215.865799	1251.034790	1305.944702	1228.967041	-40.189007
216.242355	1249.474609	1304.830200	1226.960815	-40.671219
216.618896	1251.406494	1304.830078	1227.852417	-44.089287
216.995407	1252.000854	1299.926147	1233.425171	-38.759666
217.371902	1251.109253	1292.941650	1237.288940	-33.037342
217.748367	1253.412720	1290.415405	1245.908081	-20.281336
218.124802	1252.892578	1298.588745	1240.929688	-26.179199
218.501236	1253.858398	1297.994141	1233.425171	-46.296326
218.877609	1248.137085	1305.052979	1229.635742	-32.506462
219.253983	1253.041138	1299.554565	1225.326172	-59.584869
219.630295	1247.394043	1310.477051	1234.614014	-20.259068
220.006592	1252.223755	1309.956909	1238.031982	-24.581669
220.382889	1250.217651	1307.579224	1243.604614	-11.528688
220.759140	1254.155640	1297.697021	1241.821411	-28.327600
221.135391	1255.270142	1298.737305	1239.072144	-37.264908
221.511581	1247.914185	1306.613159	1239.666626	-14.050601
221.887772	1245.387939	1320.433472	1239.963867	-7.227708
222.263931	1238.106323	1321.845337	1240.855469	3.282992
222.640060	1241.449829	1319.467773	1249.028687	9.714249
223.016159	1244.124878	1310.551392	1251.852173	11.632848
223.392212	1244.793457	1315.604004	1256.756226	16.894049
223.768265	1248.805786	1321.251099	1243.455933	-7.384679
224.144302	1245.313599	1332.767944	1244.942017	-0.424887
224.520294	1248.359985	1323.405762	1232.310547	-21.386198
224.896286	1244.199097	1318.873413	1238.106079	-8.159455
225.272217	1251.480835	1311.666016	1232.384888	-31.728653
225.648148	1245.982422	1317.981812	1232.236328	-19.091959
226.024048	1250.291870	1318.055908	1223.988647	-38.815903
226.399902	1244.644897	1325.932007	1225.549072	-23.491825
226.775772	1248.582886	1336.928833	1238.180542	-11.774557
227.151581	1242.861694	1350.600586	1251.703735	8.206917
227.527374	1243.010254	1354.761597	1255.418823	11.103732
227.903137	1242.861694	1355.801636	1247.914185	4.473608
228.278870	1246.576660	1353.572510	1241.227051	-4.999829
228.654572	1247.319702	1362.786133	1233.573853	-11.904629
229.030273	1255.195801	1368.953247	1231.864868	-20.509367
229.405930	1261.808716	1381.584839	1236.025757	-21.525959
229.781555	1265.598267	1386.042969	1236.768677	-23.935955
230.157181	1262.774658	1395.628052	1239.666504	-17.393724
230.532761	1251.555054	1394.662109	1235.505615	-11.214988
230.908325	1249.846069	1391.467163	1236.100098	-9.706161
231.283859	1251.926636	1384.631226	1237.883301	-10.582403
231.659332	1256.682007	1373.114258	1235.728516	-17.996294
232.034821	1258.168091	1369.399048	1239.963745	-16.366259
232.410263	1250.960571	1366.575562	1239.443604	-9.961483
232.785690	1249.846069	1373.337280	1242.638794	-5.836266
233.161087	1251.629395	1368.061646	1238.031982	-11.678390
233.536469	1248.657227	1372.594238	1235.357056	-10.731396
233.911804	1247.245483	1374.749023	1228.075562	-15.034816
234.287140	1248.434448	1386.340210	1230.453125	-13.038849
234.662430	1251.629272	1390.649780	1231.196167	-14.697907
235.037704	1253.709839	1399.937500	1228.223999	-17.428877
235.412933	1249.846069	1402.241089	1222.502563	-17.942520
235.788162	1255.864624	1402.538086	1227.778076	-19.149033
236.163345	1255.344482	1399.417358	1238.180542	-11.913374
236.538513	1254.304321	1399.120117	1245.908081	-5.797876
236.913635	1245.239380	1395.776489	1245.016357	-0.148151
237.288742	1241.598511	1400.903442	1242.935913	0.839523
237.663834	1244.719116	1399.863281	1239.889404	-3.113048
238.038879	1246.353882	1402.612305	1233.350830	-8.321505
238.413910	1254.898560	1407.813477	1238.477661	-10.738585
238.788910	1248.359985	1420.742188	1244.644897	-2.155146
239.163879	1251.257813	1428.544312	1248.731567	-1.424951
239.538834	1239.815308	1431.144897	1248.880005	4.737740
239.913757	1241.078247	1442.141602	1244.570557	1.736920
240.288651	1245.016235	1468.147461	1252.223755	3.230171
240.663528	1253.561157	1496.233887	1253.932617	0.153070
241.038361	1254.378540	1520.456543	1258.167969	1.424180
241.413177	1253.561157	1545.496460	1263.294800	3.334178
241.787979	1254.527222	1566.152710	1265.301147	3.457331
242.162735	1257.722168	1600.777710	1265.152466	2.165917
242.537476	1257.202148	1630.647461	1258.911011	0.457594
242.912170	1258.688110	1650.709351	1252.149414	-1.667944
243.286865	1260.545654	1653.012695	1257.499146	-0.776246
243.661514	1262.774780	1638.746582	1255.864624	-1.837945
244.036148	1251.777832	1623.514526	1259.654053	2.118763
244.410751	1249.251587	1607.911011	1257.499146	2.299552
244.785339	1253.115356	1612.369141	1257.499390	1.220317
245.159882	1255.047241	1625.297852	1258.093628	0.822790
245.534378	1255.790405	1655.539063	1255.121582	-0.167311
245.908890	1250.663452	1697.594360	1257.350586	1.496234
246.283356	1260.991577	1767.513184	1260.025513	-0.190725
246.657791	1257.424927	1842.112915	1265.152344	1.321631
247.032196	1252.818115	1903.412720	1267.010010	2.181373
247.406586	1240.335327	1938.632324	1270.205078	4.277514
247.780960	1243.233154	1949.257690	1270.279419	3.830783
248.155289	1241.969971	1936.626099	1269.387695	3.946949
248.529602	1250.217529	1903.338501	1256.087402	0.898742
248.903870	1247.542603	1852.589722	1254.378540	1.129819
249.278122	1246.205200	1793.147461	1250.068970	0.706431
249.652344	1245.610840	1748.194336	1253.858521	1.641057
250.026550	1248.434448	1710.448608	1241.078369	-1.592176
250.400711	1255.121582	1689.346680	1244.421997	-2.464064
250.774857	1254.304199	1687.637695	1244.050659	-2.366201
251.148987	1256.756104	1713.792358	1255.418945	-0.292572
251.523071	1252.520874	1746.634155	1253.264038	0.150404
251.897125	1252.520996	1767.735962	1264.483765	2.321898
252.271164	1246.502441	1771.005249	1270.948120	4.660734
252.645187	1243.456055	1771.896973	1270.502075	5.118078
253.019165	1240.483887	1770.782349	1262.477417	4.147387
253.393112	1241.747070	1759.562866	1253.561157	2.281523
253.767044	1245.462280	1737.123413	1258.688110	2.690030
254.140930	1251.406372	1713.569336	1254.824341	0.739559
254.514801	1256.310425	1698.188843	1255.418823	-0.201775
254.888657	1261.437256	1698.040039	1247.839844	-3.114367
255.262466	1258.539429	1707.922363	1249.474487	-2.017198
255.636276	1260.025513	1728.727173	1247.096802	-2.758410
256.010010	1254.229980	1742.918945	1247.839966	-1.307583
256.383759	1249.846069	1763.500854	1256.607666	1.316370
256.757446	1243.307373	1792.701660	1257.424927	2.569658
257.131134	1243.901733	1840.106812	1262.328979	3.090756
257.504791	1247.691284	1883.499634	1265.301147	2.769681
257.878418	1250.588989	1950.817871	1274.663208	3.438050
258.252014	1253.338257	2027.721191	1274.663208	2.753799
258.625580	1243.158691	2142.444580	1277.115234	3.775945
258.999115	1249.474487	2266.381592	1280.681763	3.068842
259.372650	1252.000854	2403.841553	1293.907715	3.638251
259.746124	1259.876953	2521.091309	1300.371948	3.210794
260.119598	1248.434204	2597.771729	1306.761841	4.322687
260.493042	1244.421997	2592.793457	1297.325439	3.923506
260.866425	1246.279663	2543.605225	1287.369019	3.167235
261.239838	1253.264038	2430.665039	1279.418457	2.221369
261.613159	1251.629272	2332.957031	1280.384521	2.659254
261.986511	1254.973022	2226.852539	1281.499146	2.729363
262.359802	1250.589233	2173.651611	1273.251465	2.455114
262.733063	1249.103149	2146.754150	1270.650757	2.400444
263.106293	1249.400269	2132.933838	1264.706665	1.732407
263.479523	1250.812012	2116.661621	1272.136841	2.462879
263.852692	1245.239380	2106.482178	1271.616821	3.062718
264.225861	1234.242554	2094.445068	1275.108887	4.750781
264.598969	1241.747070	2104.475830	1274.217285	3.763664
264.972076	1248.211426	2117.553467	1277.635132	3.384595
265.345154	1255.567383	2170.976807	1279.641357	2.629859
265.718201	1253.709839	2216.524414	1281.796265	2.917117
266.091217	1256.310547	2273.663086	1281.276245	2.453987
266.464203	1259.876953	2317.427490	1285.065552	2.381787
266.837158	1257.796387	2356.882324	1286.625854	2.623040
267.210114	1258.093628	2389.649902	1286.923218	2.547782
267.583038	1253.115356	2409.785889	1286.180054	2.858610
267.955902	1249.920410	2427.544189	1286.923218	3.142159
268.328766	1249.697510	2438.838135	1290.043823	3.392897
268.701569	1252.149536	2445.376953	1296.656860	3.729995
269.074371	1249.548950	2456.447998	1299.108765	4.106376
269.447144	1252.446655	2480.299072	1304.161377	4.211803
269.819885	1259.802612	2541.747314	1303.567017	3.413907
270.192596	1248.880127	2640.570068	1301.932251	3.812065
270.565277	1247.765625	2764.432617	1305.052856	3.777179
270.937927	1238.106323	2888.889648	1305.573120	4.086957
271.310577	1252.372437	2975.675049	1312.929077	3.513988
271.683136	1249.400391	3046.857422	1312.483276	3.509563
272.055725	1249.623169	3069.371094	1310.179810	3.327749
272.428284	1247.914185	3061.197998	1305.796021	3.192100
272.800812	1250.960571	3005.768311	1300.966431	2.849649
273.173279	1246.353882	2929.681885	1295.616577	2.926506
273.545776	1248.582886	2884.951904	1298.885864	3.074061
273.918152	1251.332153	2853.521484	1300.817871	3.088631
274.290558	1251.257935	2862.661133	1303.418457	3.236963
274.662964	1248.062866	2850.846680	1295.765137	2.976214
275.035278	1246.576782	2868.605225	1297.919922	3.165366
275.407593	1256.904785	2897.137451	1303.566895	2.844847
275.779907	1253.338257	2950.858398	1306.464722	3.129652
276.152161	1248.360107	3002.647217	1306.241821	3.299444
276.524384	1243.233154	3033.705811	1313.077759	3.900903
276.896606	1240.929688	3057.482666	1323.257202	4.532073
277.268799	1238.031982	3052.281494	1324.074341	4.742587
277.640930	1232.162109	3060.083252	1324.520386	5.052640
278.013031	1235.357056	3071.599854	1325.337769	4.900262
278.385162	1238.700562	3082.745361	1326.823730	4.778798
278.757233	1244.867798	3093.742432	1327.863892	4.489006
279.129272	1247.468384	3123.166260	1316.569946	3.684046
279.501282	1245.610840	3163.364014	1321.622559	3.963582
279.873230	1245.982300	3227.264404	1315.232544	3.495224
280.245178	1246.353882	3304.984619	1330.836060	4.103804
280.617126	1246.651001	3428.178955	1335.219849	4.059946
280.988983	1247.988525	3537.923828	1338.043335	3.932636
281.360870	1247.319702	3639.346924	1336.854492	3.743050
281.732697	1248.359985	3707.408447	1333.362305	3.456716
282.104492	1249.771851	3750.801025	1335.814331	3.440283
282.476288	1256.533325	3773.463623	1332.767944	3.028873
282.848053	1254.750122	3762.615479	1340.049683	3.401282
283.219757	1248.359985	3767.890869	1339.678101	3.624410
283.591461	1244.198975	3740.399170	1351.046387	4.280402
283.963135	1245.536499	3750.578369	1341.015503	3.811473
284.334747	1250.588989	3796.869141	1347.108398	3.790604
284.706360	1248.731567	3884.397705	1345.547974	3.673318
285.077942	1249.177246	3991.096436	1358.996704	4.005204
285.449524	1255.195801	4070.377686	1370.290649	4.088363
285.821014	1256.087524	4108.866211	1367.764526	3.914675
286.192535	1262.626099	4144.902832	1370.067871	3.727670
286.563995	1257.944946	4133.386230	1364.272339	3.697776
286.935425	1256.533325	4118.748535	1370.513672	3.982242
287.306824	1252.595215	4045.262939	1369.547729	4.187842
287.678223	1253.932739	3963.827393	1368.804688	4.238982
288.049561	1256.087524	3918.205078	1362.860474	4.010828
288.420898	1254.304199	3909.585938	1358.253784	3.914823
288.792145	1247.468384	3958.848877	1350.452026	3.798200
289.163452	1246.353882	4039.244385	1346.959717	3.602212
289.534668	1240.855469	4150.327148	1342.353027	3.488522
289.905914	1243.753296	4259.923828	1348.000000	3.456260
290.277039	1253.041016	4366.548340	1354.984375	3.274229
290.648193	1265.301025	4415.661621	1359.739746	2.997711
291.019318	1267.232788	4430.894043	1364.569458	3.076710
291.390381	1254.601440	4363.798340	1362.711914	3.477119
291.761475	1250.143188	4294.177246	1359.442627	3.590611
292.132507	1249.177368	4250.933105	1355.430298	3.539693
292.503510	1253.635620	4249.818359	1357.064819	3.452033
292.874481	1252.298096	4307.997559	1369.770508	3.844371
293.245422	1250.440552	4376.950684	1371.182251	3.861868
293.616364	1252.446655	4513.444824	1379.430054	3.894004
293.987213	1243.976196	4630.322754	1378.909790	3.984636
294.358093	1240.261108	4755.076660	1392.135742	4.320985
294.728943	1234.093872	4861.255371	1394.959351	4.435024
295.099731	1245.387939	4955.545898	1397.634277	4.103500
295.470490	1248.880127	5068.337402	1390.352539	3.703993
295.841248	1256.979126	5146.132324	1392.284546	3.479046
296.211975	1253.858398	5275.864746	1400.086304	3.635695
296.582642	1249.994751	5404.037109	1419.999146	4.092505
296.953308	1240.409668	5463.851074	1428.098267	4.443973
297.323883	1239.443726	5462.067871	1422.451294	4.333977
297.694519	1244.347656	5341.622559	1403.058228	3.873564
298.065063	1244.124756	5235.221191	1387.231812	3.585658
298.435608	1242.267212	5069.228516	1379.132813	3.576352
298.806122	1239.592285	4894.691406	1375.566406	3.720121
299.176575	1247.839966	4724.018066	1371.108032	3.546080
299.547028	1256.458984	4617.319824	1369.547729	3.364874
299.917450	1256.384644	4581.357422	1366.427124	3.309576
300.287872	1255.047241	4569.691895	1367.764648	3.400588
300.658234	1250.291870	4560.775391	1371.182495	3.651752
301.028564	1255.047241	4532.540039	1373.783081	3.622764
301.398865	1245.833618	4508.763184	1372.965698	3.896255
301.769135	1243.753296	4455.116699	1365.312500	3.785284
302.139374	1241.152710	4408.380371	1356.024658	3.626893
302.509583	1255.716064	4365.284668	1353.126831	3.132613
302.879791	1254.675781	4320.108887	1361.077271	3.471010
303.249939	1257.202026	4291.873535	1365.461060	3.567405
303.620087	1254.898682	4251.898926	1358.848145	3.468450
303.990173	1251.332153	4240.604980	1351.937988	3.365562
304.360260	1250.886230	4215.861816	1349.634644	3.330497
304.730286	1247.616943	4220.840332	1357.362183	3.691120
305.100281	1259.579590	4220.394531	1358.922485	3.355255
305.470276	1260.768677	4239.639160	1356.767700	3.222665
305.840179	1255.567505	4236.518066	1352.681152	3.257808
306.210144	1252.743896	4277.235840	1349.560425	3.201084
306.579987	1252.372314	4310.746582	1358.625366	3.474168
306.949890	1253.784058	4358.151855	1359.739868	3.413121
307.319702	1246.502441	4417.073730	1363.529175	3.691030
307.689484	1240.929810	4517.084961	1355.281738	3.490431
308.059265	1247.468384	4625.046875	1359.962769	3.330622
308.429016	1258.019409	4713.318848	1363.900757	3.064318
308.798737	1257.796509	4784.649414	1374.303223	3.303418
309.168396	1256.310547	4848.326660	1383.590942	3.543425
309.538055	1248.285767	4871.583496	1382.848022	3.713806
309.907684	1251.257813	4874.332520	1385.597168	3.707883
310.277313	1247.171143	4882.951660	1384.036743	3.764408
310.646851	1255.567383	4880.425293	1381.213257	3.466229
311.016388	1257.202026	4880.500000	1386.191528	3.560003
311.385895	1255.864502	4805.454102	1381.139038	3.529268
311.755371	1248.285645	4764.810547	1378.909790	3.714581
312.124817	1246.799683	4690.879395	1370.067993	3.579137
312.494232	1246.056641	4670.148926	1369.324829	3.600025
312.863617	1249.623169	4635.226563	1379.132813	3.825305
313.232971	1255.047363	4654.173828	1376.680786	3.578373
313.602295	1255.493164	4725.801758	1373.411499	3.397921
313.971619	1253.858521	4811.546875	1378.835571	3.512872
314.340820	1245.536621	4840.599121	1375.640625	3.618964
314.710083	1247.765625	4831.237305	1382.773804	3.767525
315.079285	1245.907959	4756.637207	1366.352661	3.430760
315.448486	1251.183472	4674.310059	1368.878906	3.438244
315.817596	1249.103027	4553.642090	1359.293945	3.334532
316.186707	1255.641724	4463.290039	1360.557007	3.270785
316.555786	1253.635620	4389.210449	1354.389893	3.213263
316.924866	1259.208252	4335.341309	1360.259888	3.285022
317.293884	1252.149414	4330.956543	1356.693359	3.395599
317.662872	1253.338257	4342.548340	1362.117554	3.521266
318.031830	1248.657227	4387.204102	1357.064941	3.454073
318.400757	1247.245483	4400.504395	1359.814087	3.569913
318.769684	1247.319702	4424.430176	1362.043091	3.610935
319.138550	1242.415894	4428.367676	1362.637573	3.773494
