Jaz Data File
++++++++++++++++++++++++++++++++++++
Date: Fri Jun 04 12:55:26 2021
User: jaz
Dark Spectrum Present: Yes
Reference Spectrum Present: Yes
Processed Spectrum Present: Yes
Spectrometers: JAZA3586
Integration Time (usec): 40000 (JAZA3586)
Spectra Averaged: 10 (JAZA3586)
Boxcar Smoothing: 1 (JAZA3586)
Correct for Electrical Dark: No (JAZA3586)
Strobe/Lamp Enabled: Yes (JAZA3586)
Correct for Detector Non-linearity: No (JAZA3586)
Correct for Stray Light: No (JAZA3586)
Number of Pixels in Processed Spectrum: 2048
>>>>>Begin Processed Spectral Data<<<<<
W	D	R	S	P
191.335022	0.000000	0.000000	0.000000	0.000000
191.713211	424.640045	428.652374	424.937256	7.407435
192.091385	846.753845	859.013672	851.732117	40.606377
192.469528	1283.133667	1284.322388	1281.944824	-100.010269
192.847641	1300.743530	1286.997437	1286.625977	102.702293
193.225739	1322.068359	1296.508179	1292.941528	113.953934
193.603790	1320.879517	1312.483276	1294.056152	319.468750
193.981842	1316.569946	1320.507935	1304.755737	-300.006195
194.359863	1311.517334	1326.526489	1308.545288	-19.801554
194.737854	1320.433716	1328.755615	1311.517334	-107.143593
195.115829	1324.743164	1333.882446	1314.192261	-115.445648
195.493774	1330.464478	1333.882446	1311.888794	-543.471436
195.871704	1333.287964	1328.012573	1311.071411	421.135681
196.249603	1341.015503	1325.783569	1305.795898	231.222153
196.627457	1339.083618	1321.325317	1306.093140	185.774979
197.005310	1337.448975	1324.074585	1312.186035	188.890411
197.383133	1336.260132	1323.703003	1316.644165	156.213791
197.760910	1337.746216	1323.257202	1318.724731	131.282120
198.138687	1332.767944	1327.120972	1316.347046	290.791168
198.516449	1331.504761	1324.891846	1307.579346	361.798309
198.894180	1329.275757	1324.594604	1303.195435	557.134644
199.271866	1323.405762	1314.043579	1300.817749	241.268661
199.649536	1314.786621	1314.340820	1299.777466	3366.785400
200.027191	1305.350220	1314.266479	1306.241943	10.001095
200.404816	1308.693726	1323.405762	1311.294434	17.677418
200.782410	1306.984863	1334.402466	1313.746338	24.661072
201.159988	1308.470825	1347.999878	1312.260254	9.586439
201.537537	1319.021973	1351.120605	1309.065308	-31.018969
201.915070	1320.730835	1354.910034	1308.099365	-36.956600
202.292557	1328.607056	1349.931763	1317.089966	-54.008198
202.670029	1321.696777	1358.328125	1313.969360	-21.095093
203.047485	1324.445923	1354.315674	1305.498779	-63.432545
203.424911	1316.644165	1357.807861	1290.043823	-64.620880
203.802292	1313.523438	1351.194946	1290.415405	-61.340874
204.179688	1312.409058	1339.603638	1305.127319	-26.776432
204.557037	1314.340820	1338.266357	1306.762085	-31.676344
204.934357	1311.665894	1337.300415	1308.768066	-11.304394
205.311661	1305.201538	1348.891724	1301.635132	-8.162946
205.688934	1300.371948	1336.185913	1303.492554	8.713376
206.066177	1294.873535	1337.968994	1302.601074	17.931213
206.443390	1302.229492	1342.129883	1301.412109	-2.048558
206.820587	1311.814575	1350.749146	1297.548462	-36.641251
207.197769	1314.340820	1357.807861	1291.307007	-52.991447
207.574921	1309.808350	1355.132935	1296.879639	-28.524719
207.952042	1303.566895	1349.931763	1303.641235	0.160339
208.329147	1304.681519	1337.448853	1311.442993	20.634802
208.706223	1313.077759	1336.111450	1310.625610	-10.645921
209.083267	1313.077759	1348.148438	1305.796021	-20.763039
209.460297	1318.798950	1357.064819	1300.223267	-48.543739
209.837280	1305.944580	1354.687134	1293.684692	-25.152330
210.214264	1301.635010	1349.783203	1293.758911	-16.358036
210.591217	1299.034546	1337.449097	1288.780640	-26.692766
210.968124	1302.378052	1341.387085	1291.752808	-27.237907
211.345016	1308.842407	1343.096069	1285.511353	-68.112587
211.721893	1307.505005	1352.532593	1284.991333	-49.999729
212.098724	1305.573120	1352.086670	1284.471069	-45.367535
212.475555	1302.675415	1353.349731	1282.910767	-39.003284
212.852356	1304.161377	1352.458130	1290.786743	-27.692616
213.229126	1305.350220	1356.098999	1289.300903	-31.625029
213.605865	1304.458496	1352.681030	1299.183105	-10.939679
213.982590	1309.362549	1356.173218	1298.291626	-23.650427
214.359283	1309.659668	1347.479858	1299.851929	-25.932549
214.735931	1311.220093	1341.461304	1298.365845	-42.505733
215.112579	1301.189331	1335.740112	1301.486450	0.859949
215.489197	1299.034546	1342.055786	1298.811401	-0.518685
215.865799	1299.703247	1345.102173	1300.669067	2.127408
216.242355	1297.325562	1344.582153	1295.319336	-4.245388
216.618896	1293.758911	1341.164185	1290.786743	-6.269699
216.995407	1295.319336	1343.764771	1288.334839	-14.417245
217.371902	1300.148926	1345.770874	1287.963379	-26.709835
217.748367	1297.028198	1343.616089	1288.632080	-18.022104
218.124802	1300.074585	1346.142456	1284.396851	-34.031818
218.501236	1296.433960	1348.074219	1286.700195	-18.849178
218.877609	1302.303711	1352.755371	1287.666138	-29.013065
219.253983	1296.136719	1351.938110	1289.672241	-11.584796
219.630295	1302.155151	1357.807983	1287.517700	-26.301359
220.006592	1306.910522	1352.903931	1287.294800	-42.648987
220.382889	1313.597778	1354.241333	1289.226563	-59.963299
220.759140	1318.278809	1349.931763	1285.511353	-103.521004
221.135391	1308.470825	1357.956421	1284.991211	-47.447372
221.511581	1302.749634	1357.064819	1283.282227	-35.841557
221.887772	1295.913818	1357.287720	1279.492798	-26.755705
222.263931	1305.944702	1350.080444	1285.139893	-47.138233
222.640060	1308.025024	1354.018555	1282.687866	-55.088528
223.016159	1309.436890	1356.619019	1292.867310	-35.118340
223.392212	1306.464722	1357.510742	1289.598022	-33.042145
223.768265	1308.470825	1349.411743	1289.598022	-46.097652
224.144302	1308.025146	1348.520020	1281.944702	-64.404312
224.520294	1308.470947	1357.584961	1283.802368	-50.227169
224.896286	1302.006714	1370.885254	1285.957153	-23.301250
225.272217	1302.006714	1379.801636	1296.285278	-7.354510
225.648148	1308.768188	1379.801392	1304.607300	-5.857667
226.024048	1314.043579	1373.485718	1304.904419	-15.374885
226.399902	1316.569824	1362.711914	1299.257446	-37.519711
226.775772	1310.774292	1361.597290	1291.975708	-36.988342
227.151581	1307.356323	1365.683960	1294.279175	-22.420158
227.527374	1293.164551	1384.631226	1297.102539	4.305380
227.903137	1293.015991	1398.674438	1295.987915	2.812765
228.278870	1296.731079	1412.197388	1293.610474	-2.702611
228.654572	1310.031250	1420.890991	1297.028320	-11.729172
229.030273	1309.585327	1435.454102	1300.743530	-7.024615
229.405930	1306.910522	1448.977417	1296.508179	-7.322145
229.781555	1302.823853	1453.138306	1291.232788	-7.711211
230.157181	1296.879761	1451.578003	1294.873535	-1.296864
230.532761	1295.839478	1445.410767	1302.006592	4.123194
230.908325	1295.913696	1437.311890	1302.303833	4.519249
231.283859	1301.040527	1427.503906	1303.343994	1.821450
231.659332	1296.136719	1414.277954	1299.926147	3.207541
232.034821	1297.845581	1410.934204	1299.851685	1.773922
232.410263	1298.514282	1407.590820	1292.124390	-5.858173
232.785690	1299.331665	1412.940552	1300.594849	1.111870
233.161087	1296.433960	1418.364746	1304.532837	6.642192
233.536469	1301.114868	1417.473022	1303.343994	1.915745
233.911804	1303.789917	1419.256348	1290.861206	-11.196943
234.287140	1300.594849	1418.438965	1287.220215	-11.349428
234.662430	1303.789917	1429.955933	1289.375122	-11.425260
235.037704	1302.006714	1435.008423	1295.170776	-5.139737
235.412933	1312.854858	1436.717407	1294.947876	-14.457140
235.788162	1297.251343	1435.082886	1289.375122	-5.714382
236.163345	1301.858032	1437.088867	1283.505249	-13.571448
236.538513	1295.616577	1442.884644	1283.505249	-8.224002
236.913635	1300.000366	1450.166138	1295.690796	-2.869875
237.288742	1291.975708	1453.212524	1306.613281	9.078307
237.663834	1286.997437	1458.785522	1307.282104	11.807960
238.038879	1291.529907	1458.116699	1305.350220	8.296164
238.413910	1300.966309	1468.964844	1306.241821	3.140213
238.788910	1313.597778	1468.370239	1312.483276	-0.720091
239.163879	1314.786621	1478.104004	1311.963135	-1.728834
239.538834	1312.334717	1478.772583	1302.526733	-5.892880
239.913757	1305.721802	1495.936646	1292.867310	-6.757881
240.288651	1300.223267	1508.345215	1291.752686	-4.070009
240.663528	1298.960327	1529.298706	1293.238770	-2.483979
241.038361	1301.040649	1541.484253	1299.034546	-0.834334
241.413177	1309.288208	1571.651245	1304.235596	-1.925810
241.787979	1310.551392	1610.140015	1309.956909	-0.198433
242.162735	1307.950806	1656.876343	1314.637939	1.916493
242.537476	1300.074707	1675.006226	1317.758667	4.716584
242.912170	1300.074829	1676.789429	1328.309692	7.495028
243.286865	1295.913696	1665.941284	1331.281860	9.558250
243.661514	1297.771362	1655.390503	1332.842163	9.806746
244.036148	1296.359741	1646.994141	1324.594604	8.052508
244.410751	1299.257324	1641.421509	1319.021851	5.776328
244.785339	1299.257446	1636.963257	1316.495605	5.104490
245.159882	1297.325562	1650.189087	1321.771118	6.927765
245.534378	1295.170776	1678.275513	1325.857788	8.010084
245.908890	1290.563965	1730.956055	1325.188965	7.862312
246.283356	1291.827148	1793.964844	1321.622559	5.933713
246.657791	1297.102539	1862.992188	1323.628662	4.687508
247.032196	1304.458618	1920.130859	1329.201294	4.018806
247.406586	1302.898071	1966.570190	1340.123779	5.609051
247.780960	1307.876587	1974.817749	1342.947266	5.258437
248.155289	1313.226440	1975.709351	1341.312744	4.239552
248.529602	1318.056030	1928.229858	1325.634888	1.242082
248.903870	1310.105591	1877.183960	1323.479980	2.358473
249.278122	1302.155151	1814.621094	1325.857788	4.625212
249.652344	1301.040649	1775.983765	1334.031006	6.946170
250.026550	1304.087036	1756.293457	1336.334351	7.131105
250.400711	1299.851807	1741.878540	1327.789673	6.320402
250.774857	1297.325562	1741.061523	1324.891846	6.212317
251.148987	1304.978638	1754.658691	1324.520264	4.345673
251.523071	1309.882690	1771.896973	1320.582153	2.315830
251.897125	1315.455444	1790.844116	1329.275513	2.907109
252.271164	1306.464722	1793.741821	1320.730835	2.927721
252.645187	1298.662964	1794.931030	1330.984619	6.512943
253.019165	1299.851807	1788.912476	1326.006348	5.347913
253.393112	1298.737183	1778.287109	1333.287964	7.204835
253.767044	1297.697144	1760.008667	1324.743286	5.850199
254.140930	1299.257324	1736.677734	1323.331543	5.503680
254.514801	1303.418335	1718.250610	1320.359497	4.083858
254.888657	1312.631958	1716.095703	1325.189087	3.112331
255.262466	1300.966431	1722.931274	1324.445923	5.564324
255.636276	1295.245117	1747.228516	1325.783447	6.756516
256.010010	1289.746704	1772.268555	1324.074585	7.114264
256.383759	1302.303711	1798.571655	1325.411865	4.656387
256.757446	1302.526733	1826.509399	1324.966064	4.282457
257.131134	1311.442993	1860.763062	1328.829956	3.165179
257.504791	1309.882690	1901.332397	1328.086914	3.077899
257.878418	1315.752563	1956.539063	1331.950562	2.527831
258.252014	1311.443115	2031.956421	1340.123901	3.980605
258.625580	1306.984863	2133.454102	1345.325073	4.639037
258.999115	1300.520508	2256.276367	1353.795654	5.574138
259.372650	1303.269653	2378.578857	1363.009155	5.555565
259.746124	1300.000366	2486.614990	1382.550781	6.956801
260.119598	1304.235718	2543.679443	1391.021118	7.001964
260.493042	1300.074707	2545.462646	1393.324585	7.487617
260.866425	1304.904419	2502.367188	1384.556763	6.651760
261.239838	1308.025024	2416.175781	1373.708862	5.927338
261.613159	1309.882690	2321.439941	1359.145386	4.869986
261.986511	1304.087158	2227.075439	1354.390015	5.449999
262.359802	1299.554565	2161.020508	1355.058716	6.442988
262.733063	1297.102661	2133.156982	1356.098999	7.056520
263.106293	1298.142822	2118.519287	1351.492188	6.503035
263.479523	1302.303711	2111.980469	1344.507813	5.212463
263.852692	1305.127319	2108.339600	1333.287964	3.506003
264.225861	1301.932251	2105.144775	1329.424194	3.422748
264.598969	1298.291504	2114.061279	1334.551147	4.444838
264.972076	1299.777466	2131.002197	1339.232300	4.746591
265.345154	1303.864258	2167.113037	1350.452026	5.396795
265.718201	1300.223267	2210.728760	1352.012329	5.687946
266.091217	1305.573120	2258.728516	1362.934937	6.018097
266.464203	1305.424438	2308.808350	1352.829590	4.724528
266.837158	1313.151978	2347.966064	1355.578857	4.099952
267.210114	1304.235718	2380.213379	1356.024536	4.813187
267.583038	1310.402832	2390.541504	1365.312500	5.083576
267.955902	1301.783569	2405.402100	1368.878906	6.079577
268.328766	1302.749512	2389.129883	1365.906860	5.813558
268.701569	1293.981812	2403.024170	1364.420898	6.351343
269.074371	1292.272949	2419.742432	1362.637695	6.240945
269.447144	1295.170776	2463.878174	1364.495239	5.931721
269.819885	1302.229614	2532.608398	1370.142212	5.519650
270.192596	1308.768066	2613.747070	1371.628296	4.816953
270.565277	1311.442993	2737.089111	1383.665405	5.065942
270.937927	1304.309937	2847.577393	1383.516602	5.132401
271.310577	1307.653442	2934.437500	1386.860352	4.868926
271.683136	1304.458496	2992.616455	1394.885132	5.356527
272.055725	1313.151978	2996.406006	1401.498047	5.248528
272.428284	1309.437012	2981.619873	1404.841431	5.705382
272.800812	1299.331665	2935.626221	1387.380493	5.380989
273.173279	1293.981812	2876.704102	1376.903687	5.239193
273.545776	1289.598022	2841.781982	1371.925415	5.303971
273.918152	1304.012817	2807.454102	1371.108032	4.462776
274.290558	1303.715698	2797.943359	1382.401978	5.266017
274.662964	1307.430786	2797.794922	1387.528931	5.374401
275.035278	1300.743408	2814.810303	1394.364746	6.183434
275.407593	1303.269653	2844.976807	1394.141968	5.894266
275.779907	1307.430664	2886.363525	1390.129517	5.237642
276.152161	1311.220215	2931.316650	1395.627930	5.210042
276.524384	1308.322388	2975.526611	1390.946899	4.955872
276.896606	1306.316162	2998.634766	1395.925293	5.295051
277.268799	1304.830200	3004.430664	1385.968750	4.773978
277.640930	1307.430664	3003.984619	1391.021362	4.927087
278.013031	1306.093140	3007.253906	1395.851074	5.276276
278.385162	1302.006470	3010.968994	1406.699219	6.126100
278.757233	1295.839478	3017.210693	1409.448242	6.599899
279.129272	1299.851807	3044.033936	1404.172852	5.981087
279.501282	1301.932251	3075.240967	1408.408081	6.004360
279.873230	1305.052979	3142.262451	1408.705200	5.641829
280.245178	1300.297607	3229.121826	1413.237671	5.855384
280.617126	1299.034546	3337.752197	1418.884766	5.878706
280.988983	1301.412231	3441.033203	1425.423462	5.795944
281.360870	1298.440063	3537.775391	1434.265503	6.065435
281.732697	1297.028320	3619.954346	1427.132324	5.600867
282.104492	1296.136597	3657.179932	1425.720581	5.488420
282.476288	1297.325317	3658.443359	1423.862915	5.359223
282.848053	1299.851685	3638.975586	1436.197266	5.828916
283.219757	1300.891968	3636.969482	1437.311890	5.839700
283.591461	1302.452393	3626.269775	1438.277832	5.844927
283.963135	1295.839478	3662.678467	1432.705078	5.782633
284.334747	1295.467896	3707.408447	1436.568726	5.850096
284.706360	1293.758911	3793.897217	1441.101196	5.893366
285.077942	1301.040649	3872.806396	1459.825562	6.174160
285.449524	1294.204834	3949.263672	1471.936890	6.694091
285.821014	1294.427734	3972.817627	1475.726440	6.768944
286.192535	1291.604248	4002.835938	1465.101074	6.399189
286.563995	1296.359497	4000.607422	1463.094849	6.165683
286.935425	1295.096558	3988.124268	1460.568481	6.144456
287.306824	1296.285278	3911.889648	1455.887573	6.101928
287.678223	1298.662964	3856.534180	1439.986816	5.525058
288.049561	1297.696899	3808.534424	1438.352051	5.601922
288.420898	1299.926147	3807.197266	1434.042603	5.349101
288.792145	1302.155151	3832.608643	1441.992798	5.526189
289.163452	1306.761841	3916.496826	1444.890747	5.292833
289.534668	1297.696899	4027.579102	1451.280762	5.626025
289.905914	1293.684692	4122.537598	1452.172485	5.602546
290.277039	1295.988159	4208.877441	1459.453979	5.611811
290.648193	1300.594849	4249.224121	1463.540649	5.526154
291.019318	1296.508179	4258.585938	1470.748047	5.882353
291.390381	1291.975708	4208.431641	1468.964722	6.068633
291.761475	1296.582397	4126.996094	1464.283569	5.924971
292.132507	1305.870239	4090.067627	1465.992554	5.751112
292.503510	1305.127319	4095.565674	1464.060913	5.695650
292.874481	1309.065308	4156.419434	1475.131836	5.832311
293.245422	1304.904297	4233.174316	1474.166016	5.780263
293.616364	1302.898193	4345.297363	1482.190796	5.893132
293.987213	1296.582520	4482.312012	1481.076172	5.791253
294.358093	1288.632202	4586.261719	1489.695313	6.097201
294.728943	1293.238892	4688.427246	1488.506470	5.751303
295.099731	1297.399780	4763.918945	1499.354614	5.825868
295.470490	1302.006714	4871.286621	1509.162476	5.803854
295.841248	1306.018921	4955.100098	1528.332520	6.092318
296.211975	1302.823853	5066.331543	1534.945679	6.167699
296.582642	1301.709351	5171.172363	1539.106445	6.135143
296.953308	1296.508179	5220.955078	1530.413086	5.960201
297.323883	1291.901489	5207.803223	1527.218140	6.009258
297.694519	1294.724976	5113.513184	1518.153320	5.850766
298.065063	1293.758911	5003.545410	1515.255493	5.970602
298.435608	1300.817749	4873.887207	1518.227539	6.084679
298.806122	1295.839478	4701.059082	1506.190430	6.177309
299.176575	1297.771362	4553.122559	1498.537231	6.167257
299.547028	1290.786987	4430.819824	1473.645874	5.823471
299.917450	1298.142822	4389.582031	1480.184570	5.888576
300.287872	1299.851929	4382.077637	1481.224731	5.884475
300.658234	1305.796021	4389.433105	1487.911987	5.905882
301.028564	1299.331665	4372.121094	1479.144165	5.851768
301.398865	1299.851807	4353.173828	1473.720215	5.694401
301.769135	1297.251099	4301.013184	1468.221802	5.691885
302.139374	1298.365845	4275.081543	1464.283691	5.573856
302.509583	1288.632202	4232.654297	1461.088745	5.857855
302.879791	1284.322632	4192.308105	1462.723267	6.134853
303.249939	1287.889038	4135.317871	1467.255859	6.299256
303.620087	1289.746460	4085.089111	1460.940063	6.124244
303.990173	1295.244995	4064.729736	1452.320923	5.671666
304.360260	1297.696899	4069.262451	1446.079468	5.353746
304.730286	1305.350220	4063.912842	1447.268555	5.144648
305.100281	1308.842407	4046.749268	1453.584351	5.286592
305.470276	1302.898315	4046.303467	1458.636719	5.676828
305.840179	1299.480347	4073.498047	1462.277710	5.868649
306.210144	1295.468018	4113.621582	1459.305542	5.813648
306.579987	1295.913696	4158.054688	1456.556274	5.612671
306.949890	1295.988159	4187.181641	1453.584106	5.450896
307.319702	1296.359497	4263.118652	1461.460327	5.565023
307.689484	1302.898193	4344.851563	1464.952515	5.327311
308.059265	1306.613403	4446.645996	1473.051392	5.300518
308.429016	1304.978638	4526.967285	1474.017456	5.246412
308.798737	1304.830078	4600.007324	1474.166016	5.138902
309.168396	1302.898315	4644.812012	1476.395020	5.191538
309.538055	1306.167603	4654.693848	1483.676758	5.301113
309.907684	1306.018921	4653.431152	1489.100952	5.469360
310.277313	1298.737183	4667.474121	1489.769531	5.670741
310.646851	1296.731079	4694.148926	1490.958496	5.716913
311.016388	1298.960083	4679.288574	1496.308228	5.838135
311.385895	1310.477173	4629.653809	1500.543457	5.726308
311.755371	1315.827026	4560.478027	1492.593140	5.447924
312.124817	1306.316284	4514.484863	1484.865601	5.565460
312.494232	1306.390503	4473.617676	1472.902710	5.257350
312.863617	1304.235718	4458.163086	1464.432251	5.079272
313.232971	1307.653564	4471.686523	1467.553101	5.053662
313.602295	1300.743530	4547.920898	1477.286743	5.436821
313.971619	1299.034546	4624.750000	1488.729370	5.703880
314.340820	1297.919922	4648.154785	1485.608765	5.602259
314.710083	1301.263550	4631.288574	1489.026489	5.638484
315.079285	1299.331665	4575.561523	1486.128784	5.701588
315.448486	1303.418457	4512.775879	1490.215332	5.820383
315.817596	1305.573120	4390.770508	1477.881226	5.584995
316.186707	1304.755859	4286.747559	1473.794434	5.668647
316.555786	1304.458618	4211.032227	1462.351929	5.432283
316.924866	1303.492676	4186.289551	1458.339355	5.371405
317.293884	1307.282104	4173.286621	1450.017578	4.980295
317.662872	1306.464722	4185.025879	1446.079468	4.850158
318.031830	1307.653687	4208.877441	1454.475708	5.060693
318.400757	1310.105591	4244.245605	1461.460327	5.158402
318.769684	1310.402710	4275.527344	1471.936890	5.447804
319.138550	1296.359619	4273.446777	1465.844116	5.692964
