Jaz Data File
++++++++++++++++++++++++++++++++++++
Date: Fri Jun 04 13:38:01 2021
User: jaz
Dark Spectrum Present: Yes
Reference Spectrum Present: Yes
Processed Spectrum Present: Yes
Spectrometers: JAZA3586
Integration Time (usec): 30700 (JAZA3586)
Spectra Averaged: 10 (JAZA3586)
Boxcar Smoothing: 1 (JAZA3586)
Correct for Electrical Dark: No (JAZA3586)
Strobe/Lamp Enabled: Yes (JAZA3586)
Correct for Detector Non-linearity: No (JAZA3586)
Correct for Stray Light: No (JAZA3586)
Number of Pixels in Processed Spectrum: 2048
>>>>>Begin Processed Spectral Data<<<<<
W	D	R	S	P
191.335022	0.000000	0.000000	0.000000	0.000000
191.713211	290.375031	294.164459	291.340942	25.489643
192.091385	586.397034	587.808777	582.607605	-268.421967
192.469528	886.431458	888.140381	877.143555	-543.494385
192.847641	899.657288	900.549011	890.963867	-974.900757
193.225739	907.161926	913.180420	908.499329	22.221546
193.603790	918.233093	923.137024	922.914063	95.453415
193.981842	924.771729	924.102966	919.496277	788.838196
194.359863	931.310242	928.486816	911.545715	700.019470
194.737854	934.653809	925.366150	917.118469	188.802582
195.115829	935.174011	929.155518	924.400146	179.012650
195.493774	934.951111	928.561096	937.328796	-37.209393
195.871704	940.003723	937.700378	930.938782	393.555573
196.249603	938.814880	935.991394	933.687988	181.580200
196.627457	935.025391	938.889160	929.378418	-146.151901
197.005310	920.982178	929.972900	930.418640	104.957771
197.383133	924.548767	937.551758	925.514648	7.428148
197.760910	929.972839	945.502136	928.635437	-8.612124
198.138687	931.756165	951.372070	930.270081	-7.575913
198.516449	930.195801	942.307129	931.384583	9.815454
198.894180	923.359863	927.223694	923.062683	-7.691336
199.271866	918.010193	920.759338	916.969788	-37.844677
199.649536	919.273254	924.548828	916.003906	-61.971424
200.027191	918.976074	921.428040	917.861511	-45.455902
200.404816	923.805725	929.304016	919.050354	-86.488167
200.782410	924.177246	933.687988	922.988464	-12.499358
201.159988	923.582764	952.189270	924.994629	4.935469
201.537537	923.731445	956.944763	930.270081	19.686787
201.915070	915.632385	959.916809	927.595215	27.013628
202.292557	918.010071	958.579407	921.205139	7.875575
202.670029	919.793457	961.402893	917.935852	-4.464384
203.047485	918.530273	956.944641	914.294983	-11.025277
203.424911	913.403320	959.619629	916.301208	6.270272
203.802292	911.917297	958.505066	914.443604	5.422681
204.179688	908.647949	966.529785	913.403381	8.215759
204.557037	911.397217	959.619629	914.443604	6.317367
204.934357	906.641785	962.443115	919.570496	23.169180
205.311661	908.722351	953.303894	922.468262	30.833187
205.688934	910.654114	957.687744	920.016296	19.905294
206.066177	911.397156	956.870422	922.542664	24.510023
206.443390	906.418945	960.288330	920.759277	26.620560
206.820587	905.304382	957.984924	922.542664	32.722294
207.197769	904.932861	956.573242	914.146423	17.841778
207.574921	910.059753	965.638184	911.248596	2.139036
207.952042	908.350769	968.610291	910.134094	2.959408
208.329147	904.412781	961.477234	913.997803	16.796835
208.706223	918.233093	968.164490	923.731445	11.011813
209.083267	914.666504	964.226379	924.845947	20.539686
209.460297	920.164856	964.375000	915.558105	-10.420121
209.837280	904.784363	950.108887	909.911133	11.311250
210.214264	907.830750	954.492737	914.220703	13.694131
210.591217	904.858582	955.161438	922.171082	34.416534
210.968124	904.709961	961.625793	923.211243	32.506390
211.345016	901.514893	961.848694	917.341309	26.231426
211.721893	901.737793	969.056152	915.706726	20.750555
212.098724	902.778076	963.409119	912.957520	16.789162
212.475555	905.378723	967.941589	912.214539	10.926314
212.852356	903.223938	969.947754	913.031799	14.699191
213.229126	908.425110	969.056152	916.375488	13.112720
213.605865	907.682068	963.037598	921.056458	24.160892
213.982590	908.870911	955.310059	922.542542	29.439882
214.359283	904.561340	954.789978	917.341309	25.443590
214.735931	907.087646	952.783752	915.855286	19.186840
215.112579	912.214539	956.350281	906.270325	-13.468027
215.489197	902.406555	959.693909	906.121765	6.485219
215.865799	899.508789	964.895203	902.778076	4.999949
216.242355	891.632629	965.415283	908.945251	23.464354
216.618896	894.010315	957.464844	913.923523	31.381855
216.995407	896.239441	954.269836	913.997742	30.601723
217.371902	899.954529	948.919983	908.499329	17.450670
217.748367	901.886414	949.811707	909.019531	14.883827
218.124802	895.942200	947.359680	906.790344	21.098164
218.501236	895.645020	954.566956	906.493164	18.411045
218.877609	905.527344	964.226379	901.812073	-6.329356
219.253983	911.620117	975.371826	907.310547	-6.759929
219.630295	911.620117	978.789734	907.607727	-5.973519
220.006592	906.344543	971.136536	905.155762	-1.834767
220.382889	901.291992	971.582336	894.976257	-8.985209
220.759140	905.081482	967.198547	901.737793	-5.382883
221.135391	903.372559	971.136536	907.236267	5.701715
221.511581	909.242432	961.997314	920.833679	21.971895
221.887772	907.236267	960.808411	918.753113	21.497826
222.263931	913.774902	963.409119	919.347473	11.227277
222.640060	912.065918	968.090149	916.969910	8.753341
223.016159	910.951416	971.210754	922.171082	18.618965
223.392212	906.790344	971.730957	921.130859	22.082506
223.768265	902.778015	978.566833	924.177246	28.235340
224.144302	906.567444	982.876404	920.313538	18.013735
224.520294	910.579834	988.300476	922.245422	15.009640
224.896286	907.459167	985.551270	921.873840	18.458553
225.272217	904.487061	988.151855	922.616882	21.669594
225.648148	901.143372	988.671936	923.062683	25.042467
226.024048	908.350769	988.077637	922.468262	17.707321
226.399902	910.059753	987.408875	926.554932	21.325619
226.775772	905.527344	995.359314	927.595215	24.565722
227.151581	902.852356	1007.024719	927.520935	23.680540
227.527374	894.902039	1014.380676	924.474426	24.751192
227.903137	896.165039	1030.504395	916.747009	15.320879
228.278870	898.988586	1044.919067	911.843018	8.808599
228.654572	896.016418	1060.299683	915.706726	11.985583
229.030273	893.415833	1062.454468	919.942078	15.692415
229.405930	895.793518	1063.569214	928.041016	19.220602
229.781555	903.892578	1068.398804	918.455994	8.852805
230.157181	913.997742	1072.931274	918.604553	2.898577
230.532761	913.849121	1073.599976	914.294983	0.279098
230.908325	915.409485	1064.312134	923.062744	5.139774
231.283859	911.471497	1056.658813	929.378479	12.333710
231.659332	911.694397	1052.052124	920.164856	6.034907
232.034821	903.892578	1049.377319	915.409485	7.916230
232.410263	898.096985	1045.439331	913.774902	10.640470
232.785690	888.883484	1039.643677	920.536438	20.995565
233.161087	889.329285	1041.947144	926.257751	24.196688
233.536469	900.846191	1047.148193	921.502380	14.118870
233.911804	901.143372	1060.522827	921.428040	12.727279
234.287140	901.886414	1064.535034	916.003967	8.679787
234.662430	892.152771	1061.414429	916.969910	14.661997
235.037704	898.394226	1063.569214	916.301086	10.841146
235.412933	906.938965	1061.785889	916.152527	5.950110
235.788162	906.938965	1067.878540	913.849121	4.293634
236.163345	908.796570	1060.745605	913.626282	3.178508
236.538513	901.069153	1064.312134	914.369324	8.147469
236.913635	895.867920	1073.377197	919.199036	13.143603
237.288742	892.524353	1080.138672	921.353760	15.366315
237.663834	895.570740	1092.250000	925.217468	15.073643
238.038879	900.251770	1087.866089	923.062744	12.158440
238.413910	903.818298	1096.039429	921.279480	9.083903
238.788910	905.155701	1097.971313	921.725281	8.593485
239.163879	907.384766	1111.345825	921.576660	6.958139
239.538834	905.898743	1119.147461	926.257751	9.547072
239.913757	906.047363	1138.763550	929.304199	9.993648
240.288651	909.539551	1160.014038	927.818115	7.297575
240.663528	906.121643	1188.323364	930.121399	8.504468
241.038361	900.400391	1210.094116	930.938782	9.860836
241.413177	897.279602	1237.734741	936.511475	11.523360
241.787979	901.514893	1268.644653	940.226624	10.544427
242.162735	907.904968	1314.638062	942.158508	8.421626
242.537476	909.019470	1344.582031	941.935547	7.557141
242.912170	906.938965	1363.380493	946.839600	8.741675
243.286865	903.521057	1361.745850	941.935608	8.383342
243.661514	903.372498	1346.811035	940.078064	8.277487
244.036148	910.134033	1335.591309	934.356689	5.693323
244.410751	911.991638	1318.427368	933.836609	5.374766
244.785339	908.127930	1327.863892	937.105957	6.903871
245.159882	905.675964	1339.157959	940.003723	7.919074
245.534378	906.641846	1374.600220	947.879822	8.812317
245.908890	908.870850	1432.853638	956.498962	9.089633
246.283356	909.242371	1516.518555	955.607239	7.634890
246.657791	908.053528	1598.623047	958.727966	7.338065
247.032196	910.282654	1666.907227	958.430847	6.363551
247.406586	909.019531	1703.761353	971.285156	7.834698
247.780960	909.985413	1715.204102	972.325378	7.741992
248.155289	910.505554	1695.513794	975.297546	8.253671
248.529602	906.195984	1655.018677	966.009705	7.987701
248.903870	905.898743	1599.588989	961.254333	7.979872
249.278122	910.728455	1532.493652	945.427795	5.580779
249.652344	910.282532	1478.624023	936.065674	4.536558
250.026550	914.517883	1438.946411	932.424805	3.414559
250.400711	908.945129	1419.033325	943.867432	6.846326
250.774857	910.431213	1411.454468	943.050049	6.510443
251.148987	905.304382	1426.017944	947.879700	8.176341
251.523071	902.257996	1457.224976	946.245117	7.926079
251.897125	899.805969	1495.490845	954.046875	9.105638
252.271164	896.313782	1516.741577	951.372009	8.874236
252.645187	899.360168	1517.484497	953.601074	8.775081
253.019165	906.790466	1494.822266	952.783875	7.821585
253.393112	907.904968	1476.469360	950.926208	7.566643
253.767044	903.372498	1455.664551	946.468018	7.803031
254.140930	894.976257	1439.243774	946.319519	9.433460
254.514801	902.852356	1423.268555	945.353516	8.166763
254.888657	908.499329	1417.844604	945.799316	7.323124
255.262466	909.539551	1426.835083	942.752930	6.420581
255.636276	903.149597	1434.934204	947.582581	8.355448
256.010010	904.858582	1458.636719	943.941711	7.057543
256.383759	909.539551	1485.608765	942.381409	5.701026
256.757446	915.335205	1529.595825	942.752930	4.463533
257.131134	907.830750	1568.827759	950.703308	6.486044
257.504791	910.356934	1631.464844	958.133606	6.625454
257.878418	908.053528	1711.117554	967.049866	7.346405
258.252014	911.248596	1809.196899	977.675110	7.397588
258.625580	909.019531	1926.372437	984.288086	7.398470
258.999115	901.886414	2067.621826	983.322266	6.985793
259.372650	904.932800	2236.586182	985.254089	6.031697
259.746124	900.549011	2375.755127	989.340759	6.018939
260.119598	897.799805	2457.636719	997.142517	6.368788
260.493042	900.697571	2459.940186	1000.709045	6.414106
260.866425	902.332275	2388.312256	999.668762	6.550323
261.239838	908.870911	2272.251709	994.021790	6.245568
261.613159	900.697571	2137.837891	983.099304	6.660662
261.986511	903.966980	2037.157715	981.761902	6.865122
262.359802	900.697571	1970.285156	976.783630	7.113588
262.733063	897.502625	1942.718872	980.201477	7.912128
263.106293	896.239441	1929.864624	975.000305	7.619866
263.479523	907.682129	1914.038086	967.718750	5.965744
263.852692	912.957581	1896.279663	959.248108	4.707565
264.225861	911.917297	1879.487305	950.777649	4.016283
264.598969	900.697571	1885.728882	954.121277	5.423554
264.972076	894.010315	1907.573853	961.031433	6.612424
265.345154	901.143372	1958.173828	971.433777	6.649799
265.718201	903.149597	2023.040161	967.941589	5.785564
266.091217	913.031921	2088.054932	962.517395	4.211447
266.464203	906.270325	2145.565430	969.278992	5.084234
266.837158	908.276428	2190.146973	983.322266	5.854400
267.210114	903.818298	2228.784424	985.328430	6.151865
267.583038	908.647949	2253.155762	974.851746	4.924017
267.955902	911.397156	2267.644775	969.278992	4.267793
268.328766	912.511719	2270.022461	978.418213	4.854952
268.701569	906.716125	2277.526855	982.430603	5.523335
269.074371	906.939026	2296.399658	980.795898	5.315506
269.447144	910.505554	2342.541992	972.474060	4.327300
269.819885	911.620117	2416.101563	973.662903	4.123865
270.192596	911.843018	2523.320313	983.173584	4.426408
270.565277	907.384766	2670.588135	993.724609	4.896760
270.937927	908.202148	2812.358154	1004.721375	5.068872
271.310577	904.041199	2922.845947	1003.532532	4.928230
271.683136	904.784180	2979.093018	1003.383972	4.753380
272.055725	901.589172	2992.021729	1001.674988	4.787804
272.428284	901.663513	2964.827148	1004.869934	5.002338
272.800812	901.737793	2915.787354	1003.161072	5.035789
273.173279	901.886414	2842.376221	1005.984558	5.364530
273.545776	900.994812	2804.555908	1000.560486	5.230495
273.918152	901.514893	2764.803955	1000.040344	5.287717
274.290558	904.487000	2763.021240	998.405579	5.053369
274.662964	905.452942	2738.798096	1002.715271	5.305183
275.035278	902.555176	2755.516357	1002.566589	5.397383
275.407593	907.236267	2785.460205	1001.452148	5.016222
275.779907	906.195984	2853.150391	1000.857666	4.862039
276.152161	907.384766	2912.963867	999.743164	4.605074
276.524384	897.056702	2960.666260	997.513977	4.868037
276.896606	899.285828	2994.325439	999.445862	4.780818
277.268799	900.474670	2998.635010	1005.315735	4.996809
277.640930	901.217773	3007.253906	1007.916321	5.066321
278.013031	904.561340	3017.210693	1009.699707	4.976612
278.385162	903.818298	3042.399170	1011.408691	5.030925
278.757233	901.069092	3051.984375	1016.907043	5.385519
279.129272	899.954590	3071.748779	1016.758484	5.378221
279.501282	899.731628	3105.705078	1015.569580	5.251104
279.873230	905.378662	3175.475342	1016.164063	4.880206
280.245178	911.025696	3283.883057	1024.708862	4.790982
280.617126	917.341370	3417.182373	1022.776917	4.217690
280.988983	918.233093	3555.756836	1024.931763	4.045411
281.360870	914.369324	3686.306641	1017.798767	3.731305
281.732697	912.660339	3783.643311	1019.582031	3.724219
282.104492	911.917236	3835.803711	1013.786377	3.484032
282.476288	914.146423	3831.196533	1022.182617	3.703611
282.848053	912.214539	3815.964844	1028.646973	4.009726
283.219757	911.620117	3812.769775	1031.841919	4.143937
283.591461	909.985413	3805.191406	1024.857422	3.967663
283.963135	907.830750	3818.119873	1028.349609	4.141130
284.334747	907.087646	3878.601807	1029.315552	4.113321
284.706360	900.771912	3982.997314	1037.191650	4.426014
285.077942	897.651123	4096.309082	1038.603394	4.406607
285.449524	901.737793	4188.444336	1050.194702	4.516890
285.821014	900.177429	4207.986328	1043.284546	4.326342
286.192535	903.075256	4252.790527	1051.532104	4.431924
286.563995	896.536621	4252.790527	1046.405151	4.465352
286.935425	898.691406	4246.771973	1048.411377	4.471815
287.306824	905.007080	4154.339355	1026.269165	3.731908
287.678223	912.957520	4069.114258	1019.136047	3.364172
288.049561	915.781006	4006.625244	1018.021484	3.307850
288.420898	910.654114	3983.368408	1028.943970	3.849686
288.792145	913.626282	4018.959717	1033.030640	3.845138
289.163452	912.660339	4134.500488	1033.625122	3.754525
289.534668	912.808899	4292.839355	1038.083252	3.706308
289.905914	908.870911	4434.980957	1045.142090	3.864632
290.277039	914.220703	4534.249512	1058.145020	3.975778
290.648193	910.208313	4581.431641	1061.340210	4.116663
291.019318	903.743958	4572.960938	1063.717773	4.359890
291.390381	901.886414	4503.784668	1056.287598	4.286662
291.761475	905.007141	4411.426758	1054.281372	4.257170
292.132507	910.654236	4352.875977	1051.234863	4.084009
292.503510	901.143494	4340.616211	1051.829224	4.381071
292.874481	905.378662	4400.652832	1056.881958	4.334518
293.245422	907.236267	4506.088379	1055.172974	4.110664
293.616364	912.734680	4680.476563	1063.271973	3.995425
293.987213	910.208313	4840.153809	1068.175781	4.019584
294.358093	906.567566	4956.140137	1077.092163	4.210928
294.728943	908.202148	5062.838867	1077.463745	4.074041
295.099731	910.356873	5194.503418	1072.856934	3.793056
295.470490	910.133972	5331.814941	1082.219116	3.891849
295.841248	905.007141	5464.296875	1089.500854	4.046545
296.211975	903.298157	5576.196777	1091.952759	4.037208
296.582642	904.264099	5709.569824	1091.952759	3.905863
296.953308	904.412659	5781.643066	1096.559570	3.939672
297.323883	907.979187	5770.943848	1100.200317	3.952756
297.694519	902.183594	5639.873535	1093.958862	4.047864
298.065063	910.282532	5491.268066	1081.104614	3.728938
298.435608	903.743958	5310.118652	1071.519409	3.807562
298.806122	896.239319	5126.516113	1061.562866	3.908102
299.176575	900.325989	4927.979004	1060.894287	3.986647
299.547028	905.007141	4815.781738	1058.145142	3.915797
299.917450	913.106201	4759.460938	1059.705444	3.811381
300.287872	908.499329	4750.247559	1059.036743	3.918461
300.658234	905.081543	4722.829590	1069.810669	4.314825
301.028564	907.384827	4699.052246	1073.599976	4.383695
301.398865	906.047424	4647.337891	1062.528931	4.182554
301.769135	906.196045	4590.199219	1054.058472	4.013635
302.139374	905.452942	4539.079590	1048.039917	3.924095
302.509583	895.719299	4489.964844	1051.309204	4.328861
302.879791	897.428223	4420.417480	1040.683960	4.066312
303.249939	901.366272	4371.897949	1038.974976	3.965061
303.620087	911.471497	4335.117676	1043.730347	3.863099
303.990173	910.356934	4337.272949	1048.857178	4.041542
304.360260	910.579834	4326.201660	1052.275146	4.148448
304.730286	905.229980	4312.530273	1049.080078	4.221820
305.100281	898.914307	4302.053223	1048.039917	4.382002
305.470276	893.118652	4330.659668	1038.009033	4.214942
305.840179	894.456116	4362.906738	1039.346436	4.177379
306.210144	899.657410	4403.848145	1042.021362	4.062677
306.579987	904.338379	4423.314941	1060.448364	4.436233
306.949890	909.836914	4466.262207	1078.281128	4.736335
307.319702	908.573730	4555.722656	1098.119873	5.197104
307.689484	909.688232	4673.715332	1108.299438	5.276562
308.059265	916.152527	4802.630371	1126.057739	5.400911
308.429016	918.233093	4897.069336	1159.642578	6.067339
308.798737	920.313477	4971.595215	1203.778320	6.996918
309.168396	905.675842	5032.746582	1242.192993	8.153898
309.538055	902.406555	5069.823242	1270.799438	8.839838
309.907684	892.524231	5069.674805	1309.436890	9.980791
310.277313	897.131042	5084.312012	1360.259766	11.060633
310.646851	901.143372	5071.829590	1419.107544	12.419160
311.016388	907.830566	5064.473145	1479.812988	13.760683
311.385895	905.007141	4996.263184	1533.088013	15.351786
311.755371	905.675842	4930.431641	1590.598267	17.017738
312.124817	907.310547	4863.855957	1643.501831	18.606920
312.494232	911.322815	4804.934082	1699.228882	20.235868
312.863617	906.864746	4780.265625	1749.829102	21.762899
313.232971	900.251770	4804.339844	1800.280640	23.053497
313.602295	899.360168	4883.323730	1860.465820	24.124357
313.971619	895.645020	4987.792969	1916.341431	24.942802
314.340820	897.874023	5022.641113	1950.074829	25.509338
314.710083	899.360168	5028.213867	1964.118164	25.788225
315.079285	907.607727	4951.162109	1954.384399	25.887535
315.448486	911.620056	4873.218262	1930.830688	25.727259
315.817596	909.390930	4723.201172	1873.691895	25.284451
316.186707	904.784241	4579.054199	1832.156616	25.239635
316.555786	907.087585	4472.949219	1808.974121	25.292248
316.924866	912.808899	4415.884766	1818.707642	25.860094
317.293884	918.530273	4422.126465	1850.880859	26.611246
317.662872	914.443665	4445.605957	1895.908203	27.794376
318.031830	913.329102	4509.506348	1948.737427	28.791916
318.400757	911.248535	4545.097656	1982.025024	29.466730
318.769684	905.007141	4576.229980	1994.359375	29.672737
319.138550	903.521057	4565.084961	1982.768188	29.475029
319.507416	901.366272	4539.524902	1964.860962	29.231672
319.876190	906.195984	4483.797852	1968.427734	29.691166
320.244995	908.499329	4397.160645	1990.941406	31.027435
320.613770	908.425110	4349.161133	2027.869751	32.535030
320.982483	910.282654	4342.622559	2100.835205	34.686321
321.351166	902.629395	4394.634277	2187.843506	36.804478
321.719818	895.867920	4458.237793	2295.582520	39.291668
322.088440	894.084656	4582.694824	2414.912842	41.230385
322.457062	894.902039	4755.596680	2549.846436	42.866493
322.825623	903.372559	4959.111816	2696.445801	44.210762
323.194183	904.264099	5104.968262	2819.194092	45.585926
323.562653	898.914307	5203.567871	2930.053467	47.184734
