Jaz Data File
++++++++++++++++++++++++++++++++++++
Date: Fri Jun 04 11:49:51 2021
User: jaz
Dark Spectrum Present: Yes
Reference Spectrum Present: Yes
Processed Spectrum Present: Yes
Spectrometers: JAZA3586
Integration Time (usec): 40000 (JAZA3586)
Spectra Averaged: 10 (JAZA3586)
Boxcar Smoothing: 1 (JAZA3586)
Correct for Electrical Dark: No (JAZA3586)
Strobe/Lamp Enabled: Yes (JAZA3586)
Correct for Detector Non-linearity: No (JAZA3586)
Correct for Stray Light: No (JAZA3586)
Number of Pixels in Processed Spectrum: 2048
>>>>>Begin Processed Spectral Data<<<<<
W	D	R	S	P
191.335022	0.000000	0.000000	0.000000	0.000000
191.713211	383.699249	385.259644	369.061615	-938.072815
192.091385	766.209656	765.392395	749.491516	2045.631104
192.469528	1150.726196	1154.069946	1132.596313	-542.202087
192.847641	1155.853149	1160.014038	1151.543579	-103.573311
193.225739	1163.877808	1177.029419	1156.076050	-59.321690
193.603790	1172.719727	1178.218262	1155.035767	-321.612213
193.981842	1184.534058	1180.224365	1154.812866	689.636047
194.359863	1191.146973	1181.264648	1157.784912	337.593262
194.737854	1193.598999	1187.060181	1169.153320	373.854675
195.115829	1192.855957	1188.546265	1171.382324	498.263702
195.493774	1186.094360	1186.094360	1174.131714	0.000000
195.871704	1180.595825	1186.094360	1168.187378	-225.668228
196.249603	1184.979858	1194.639160	1172.125366	-133.078903
196.627457	1194.861938	1196.719604	1168.930420	-1395.919312
197.005310	1200.954956	1200.731934	1172.942749	12560.262695
197.383133	1193.004517	1199.914673	1169.376221	-341.935760
197.760910	1190.403931	1203.629761	1171.382446	-143.820724
198.138687	1194.193359	1204.744263	1169.747681	-231.692749
198.516449	1199.023071	1197.388306	1168.781860	1849.880493
198.894180	1197.611206	1189.215088	1173.908691	282.303253
199.271866	1198.057007	1184.385498	1169.301880	210.328842
199.649536	1192.632935	1188.546387	1170.193481	549.105347
200.027191	1191.221069	1192.781616	1166.181152	-1604.560425
200.404816	1191.964233	1188.917847	1167.667358	797.563721
200.782410	1188.843628	1194.267578	1165.661133	-427.409821
201.159988	1185.945801	1204.595703	1162.317505	-126.693939
201.537537	1180.075806	1226.812134	1167.741577	-26.391094
201.915070	1179.704224	1230.155762	1168.633179	-21.943920
202.292557	1181.190308	1230.007202	1167.741577	-27.549335
202.670029	1175.989136	1212.248901	1164.546509	-31.557365
203.047485	1171.233765	1209.796997	1158.527954	-32.947990
203.424911	1169.599243	1206.676147	1159.939697	-26.052731
203.802292	1173.165649	1217.524414	1163.134766	-22.613081
204.179688	1182.453491	1212.100220	1160.756958	-73.183563
204.557037	1185.648560	1207.790649	1157.116333	-128.859680
204.934357	1185.574219	1207.344849	1157.933594	-126.962906
205.311661	1177.326660	1210.762817	1163.283325	-42.000446
205.688934	1174.725952	1215.146606	1167.147095	-18.749962
206.066177	1177.252319	1201.029175	1154.218384	-96.875450
206.443390	1180.001465	1204.892944	1162.243164	-71.342888
206.820587	1182.304932	1206.973389	1159.494019	-92.469963
207.197769	1183.122192	1214.403687	1169.004761	-45.130299
207.574921	1182.973633	1211.282959	1155.853149	-95.800529
207.952042	1181.487427	1207.419312	1156.596191	-95.986992
208.329147	1178.961304	1210.762817	1155.853149	-72.663696
208.706223	1188.843384	1225.177490	1172.868408	-43.966888
209.083267	1187.431763	1224.360229	1174.428711	-35.211460
209.460297	1178.961304	1223.765869	1169.673340	-20.729950
209.837280	1169.822144	1209.945679	1160.534180	-23.148418
210.214264	1168.558960	1208.162231	1152.360962	-40.900658
210.591217	1167.964478	1212.248901	1150.354614	-39.765366
210.968124	1163.357788	1212.843262	1146.045166	-34.985260
211.345016	1163.952148	1217.004272	1150.800415	-24.790211
211.721893	1156.373291	1216.558472	1154.887207	-2.469186
212.098724	1153.549683	1214.849487	1151.320679	-3.636233
212.475555	1153.178223	1217.227173	1160.088501	10.789058
212.852356	1168.707520	1210.911377	1163.580688	-12.147779
213.229126	1169.376221	1210.391235	1162.614746	-16.485365
213.605865	1171.085083	1205.933105	1149.388672	-62.260094
213.982590	1163.580566	1205.264526	1146.342285	-41.354710
214.359283	1166.701294	1204.075562	1152.063599	-39.165169
214.735931	1167.370117	1203.703979	1159.642578	-21.268147
215.112579	1173.016968	1207.567871	1158.156494	-43.010376
215.489197	1171.976807	1206.156128	1161.723022	-29.999964
215.865799	1169.896362	1202.440918	1160.757202	-28.081993
216.242355	1169.079102	1209.351074	1158.899536	-25.277046
216.618896	1170.044922	1218.787598	1158.007935	-24.694965
216.995407	1166.032593	1227.555298	1157.636353	-13.647385
217.371902	1160.980103	1223.097046	1159.494019	-2.392397
217.748367	1163.134766	1215.295288	1153.326782	-18.803461
218.124802	1166.701416	1221.016602	1148.200073	-34.062927
218.501236	1165.289673	1212.694702	1149.537476	-33.228958
218.877609	1168.113159	1216.781372	1151.320679	-34.504002
219.253983	1169.227661	1202.440918	1150.354614	-56.823837
219.630295	1176.286499	1212.546143	1149.388794	-74.180832
220.006592	1176.880859	1215.443848	1146.788208	-78.035057
220.382889	1178.366821	1219.827759	1148.497070	-72.043114
220.759140	1175.840576	1210.688599	1144.633423	-89.552147
221.135391	1171.902710	1208.013672	1152.063599	-54.939304
221.511581	1165.958374	1219.233398	1151.989380	-26.220531
221.887772	1168.187500	1226.737915	1152.658081	-26.523157
222.263931	1166.032593	1223.171387	1151.023438	-26.267889
222.640060	1173.537109	1216.484253	1160.162720	-31.141512
223.016159	1167.221558	1215.146606	1162.466064	-9.922771
223.392212	1174.354492	1222.502563	1156.521851	-37.037083
223.768265	1177.178101	1217.227051	1157.116211	-50.093422
224.144302	1183.568115	1225.103271	1154.144165	-70.841072
224.520294	1173.462891	1223.840210	1160.014038	-26.696245
224.896286	1162.540283	1232.162109	1151.915039	-15.261370
225.272217	1159.493896	1225.549072	1151.692261	-11.810786
225.648148	1169.450562	1230.007324	1142.627319	-44.294380
226.024048	1169.822144	1228.967041	1139.878052	-50.628361
226.399902	1167.592896	1239.220825	1137.351685	-42.219860
226.775772	1159.568237	1235.654175	1147.977051	-15.234335
227.151581	1165.883911	1249.548950	1151.394897	-17.317883
227.527374	1166.329956	1250.069092	1148.497192	-21.295614
227.903137	1171.679565	1254.750122	1135.642700	-43.381031
228.278870	1167.370117	1259.208130	1140.546875	-29.207125
228.654572	1173.314331	1262.848999	1151.023438	-24.896383
229.030273	1171.010864	1275.480469	1157.190552	-13.229028
229.405930	1170.193481	1276.446411	1157.339233	-12.097782
229.781555	1172.794067	1289.895142	1161.277222	-9.834962
230.157181	1173.685669	1294.056152	1168.633179	-4.197450
230.532761	1168.038818	1294.056152	1168.038940	0.000097
230.908325	1158.676636	1288.334839	1164.100830	4.183456
231.283859	1158.899536	1286.180054	1167.147095	6.479828
231.659332	1166.181274	1290.043823	1162.911987	-2.639448
232.034821	1169.376221	1285.882813	1166.626953	-2.359753
232.410263	1171.902466	1278.824097	1158.750977	-12.300120
232.785690	1167.667236	1273.251465	1167.444458	-0.210996
233.161087	1169.598999	1279.938599	1155.407349	-12.861793
233.536469	1167.741577	1279.418579	1157.710571	-8.982159
233.911804	1165.363892	1277.115234	1151.543579	-12.367022
234.287140	1167.667236	1277.040894	1157.562012	-9.239176
234.662430	1173.091431	1286.774536	1158.899536	-12.483732
235.037704	1181.338989	1299.183105	1152.732422	-24.274921
235.412933	1181.264648	1301.040649	1147.010986	-28.598101
235.788162	1165.735474	1298.588745	1149.834595	-11.968752
236.163345	1156.224731	1290.564087	1154.961548	-0.940293
236.538513	1152.212280	1294.204834	1165.438232	9.314539
236.913635	1155.853149	1301.858032	1163.952148	5.547074
237.288742	1162.614746	1301.932251	1168.113037	3.946590
237.663834	1159.791138	1301.635132	1165.363770	3.928705
238.038879	1169.747681	1302.452515	1156.224609	-10.190338
238.413910	1169.970703	1307.505005	1157.190552	-9.292337
238.788910	1169.747681	1315.083862	1154.441406	-10.531633
239.163879	1164.472290	1323.628662	1163.877808	-0.373521
239.538834	1162.391846	1337.969116	1161.648804	-0.423199
239.913757	1165.512573	1340.123901	1172.422729	3.957450
240.288651	1170.119263	1348.668579	1167.741577	-1.331669
240.663528	1174.874634	1364.346558	1160.608398	-7.529472
241.038361	1180.521606	1400.531860	1153.029663	-12.495755
241.413177	1178.664063	1438.649292	1157.933594	-7.973710
241.787979	1176.806641	1472.011230	1159.642578	-5.814294
242.162735	1175.246216	1500.766479	1160.236938	-4.610858
242.537476	1175.246216	1516.369995	1163.877808	-3.332634
242.912170	1173.388550	1528.109863	1172.942749	-0.125676
243.286865	1166.032593	1518.004517	1182.973633	4.813179
243.661514	1168.187378	1513.100586	1180.670288	3.619145
244.036148	1168.187378	1497.571289	1177.698120	2.887434
244.410751	1172.199707	1489.695313	1170.936646	-0.397820
244.785339	1165.883911	1481.521851	1167.815918	0.612096
245.159882	1165.586792	1497.868530	1168.113159	0.760309
245.534378	1161.202881	1527.143921	1170.936646	2.659927
245.908890	1160.979980	1575.589233	1171.828247	2.616504
246.283356	1163.729370	1636.814819	1169.153320	1.146505
246.657791	1163.803589	1706.510620	1172.422607	1.588153
247.032196	1163.580688	1770.411133	1182.973633	3.195776
247.406586	1164.695190	1815.067017	1192.187134	4.227112
247.780960	1168.484619	1828.887207	1188.694946	3.060304
248.155289	1168.261719	1810.311523	1182.527832	2.221964
248.529602	1166.552612	1761.197388	1183.419434	2.836453
248.903870	1161.277222	1706.436401	1187.803345	4.865757
249.278122	1160.979980	1662.226196	1191.072632	6.003567
249.652344	1155.927368	1627.898315	1183.419434	5.824949
250.026550	1164.249268	1600.926392	1177.772339	3.096812
250.400711	1164.620850	1582.425171	1174.800293	2.436414
250.774857	1174.057251	1583.613892	1178.069702	0.979706
251.148987	1168.930298	1596.245483	1178.144043	2.156194
251.523071	1168.113159	1620.468140	1179.630005	2.545975
251.897125	1163.803589	1637.260620	1185.202637	4.519744
252.271164	1168.187378	1657.842407	1179.704224	2.352033
252.645187	1174.131470	1654.573120	1177.400879	0.680501
253.019165	1177.475220	1654.647461	1173.462891	-0.840856
253.393112	1178.515503	1638.449341	1175.246094	-0.710843
253.767044	1178.515503	1613.632202	1175.840454	-0.614789
254.140930	1171.828247	1584.951294	1169.896362	-0.467629
254.514801	1163.506348	1572.542603	1170.044922	1.598532
254.888657	1158.305176	1578.041138	1162.986206	1.115232
255.262466	1161.128662	1593.124634	1166.329956	1.204014
255.636276	1172.199707	1599.960571	1171.085327	-0.260515
256.010010	1175.766235	1613.929565	1181.190308	1.237911
256.383759	1177.326538	1631.762207	1189.140747	2.599754
256.757446	1170.490723	1667.055786	1184.534058	2.828096
257.131134	1172.125366	1707.179321	1185.425659	2.485785
257.504791	1165.883911	1747.674316	1180.595947	2.528752
257.878418	1167.295776	1800.354980	1187.357422	3.169000
258.252014	1167.072876	1870.570923	1196.793823	4.224738
258.625580	1169.599121	1976.526733	1197.908325	3.508271
258.999115	1173.091431	2103.510010	1205.858765	3.521784
259.372650	1171.902466	2242.010498	1201.846558	2.798231
259.746124	1174.131714	2349.823486	1213.066284	3.311631
260.119598	1175.914917	2406.367920	1218.490356	3.460144
260.493042	1173.388550	2409.562988	1217.821533	3.594394
260.866425	1174.428711	2355.916260	1213.363403	3.295396
261.239838	1168.633179	2268.907959	1202.663940	3.092933
261.613159	1163.803589	2167.633301	1197.388306	3.345659
261.986511	1163.060547	2085.826172	1196.125244	3.583217
262.359802	1165.883911	2037.083374	1200.434692	3.965886
262.733063	1166.478394	2002.978394	1203.703979	4.450160
263.106293	1165.512573	1986.706055	1193.598877	3.420181
263.479523	1158.973877	1971.102417	1184.905518	3.193046
263.852692	1162.614746	1967.461792	1177.103760	1.800220
264.225861	1156.224609	1959.213989	1183.865234	3.442215
264.598969	1162.020386	1958.545288	1186.837402	3.115661
264.972076	1167.221313	1976.600952	1199.245972	3.956692
265.345154	1176.434937	2015.312622	1198.800171	2.666090
265.718201	1177.623901	2060.711670	1199.468872	2.473703
266.091217	1179.630005	2110.791748	1195.084961	1.659750
266.464203	1184.459595	2160.946045	1193.598999	0.935948
266.837158	1180.893066	2207.533936	1201.846558	2.040976
267.210114	1179.184204	2238.740967	1210.168457	2.924266
267.583038	1173.834351	2248.028809	1224.954712	4.758948
267.955902	1178.961304	2261.180420	1221.462524	3.927229
268.328766	1169.896362	2265.935791	1221.462402	4.704762
268.701569	1164.769409	2285.700195	1209.202515	3.963947
269.074371	1159.716797	2302.641357	1212.471802	4.615791
269.447144	1171.307983	2326.418213	1205.264526	2.939680
269.819885	1178.292480	2376.052490	1215.592651	3.114161
270.192596	1181.190308	2465.661377	1217.078491	2.794005
270.565277	1174.725952	2581.648193	1223.988647	3.501451
270.937927	1177.103638	2701.498291	1225.474854	3.173143
271.310577	1177.029419	2780.630615	1232.236450	3.442691
271.683136	1181.041626	2834.797119	1237.437500	3.410170
272.055725	1171.605347	2859.762939	1237.734741	3.917253
272.428284	1170.490723	2848.617432	1240.335327	4.162058
272.800812	1165.140991	2819.936768	1240.335327	4.544025
273.173279	1166.998535	2747.640381	1243.084595	4.813618
273.545776	1162.614624	2709.300049	1239.146484	4.948121
273.918152	1168.781738	2664.718506	1236.991699	4.559682
274.290558	1164.769409	2662.266602	1230.898804	4.415995
274.662964	1163.283325	2652.532715	1227.629517	4.320713
275.035278	1161.277222	2674.303467	1223.319946	4.100572
275.407593	1168.335938	2687.752441	1223.097046	3.604088
275.779907	1176.806519	2724.755127	1225.623413	3.153651
276.152161	1177.252319	2765.770264	1227.480957	3.161981
276.524384	1181.413208	2811.540771	1230.973145	3.040249
276.896606	1173.091309	2844.531250	1231.716187	3.507447
277.268799	1170.416504	2855.007813	1231.047485	3.599151
277.640930	1163.060547	2867.490479	1225.846313	3.683681
278.013031	1170.267944	2871.057373	1223.542847	3.132363
278.385162	1177.846680	2892.381836	1226.663574	2.847238
278.757233	1188.620605	2898.846436	1236.620239	2.806625
279.129272	1188.174805	2925.520752	1241.747070	3.083569
279.501282	1173.834351	2943.799561	1235.951538	3.509515
279.873230	1165.215210	3005.396484	1228.595581	3.444246
280.245178	1166.701294	3088.912842	1226.960815	3.134906
280.617126	1168.558960	3204.676025	1242.192749	3.616383
280.988983	1172.942749	3308.551758	1253.784058	3.785398
281.360870	1172.571167	3404.996338	1261.734497	3.994012
281.732697	1176.063477	3466.370850	1256.087524	3.494031
282.104492	1173.685669	3499.583984	1256.310425	3.552380
282.476288	1169.004761	3511.175049	1253.635498	3.613347
282.848053	1175.023193	3506.791016	1262.551880	3.753748
283.219757	1173.016968	3510.877930	1267.381470	4.036361
283.591461	1173.611450	3487.769775	1268.124634	4.084128
283.963135	1168.336060	3508.722900	1272.582764	4.454251
284.334747	1166.849976	3569.651367	1274.663208	4.486981
284.706360	1167.890259	3659.260498	1281.573364	4.563076
285.077942	1172.422607	3750.504150	1278.006836	4.095457
285.449524	1177.549561	3834.094482	1274.737427	3.658431
285.821014	1179.407104	3860.323486	1275.406250	3.580833
286.192535	1173.537231	3893.759766	1276.743652	3.794043
286.563995	1167.518677	3876.150391	1278.081177	4.081858
286.935425	1163.654907	3864.558838	1271.988281	4.011004
287.306824	1167.592896	3792.113525	1266.118286	3.754034
287.678223	1173.983032	3713.872803	1264.335083	3.557322
288.049561	1180.521606	3666.393555	1266.786987	3.470226
288.420898	1173.165649	3650.344482	1264.855103	3.701366
288.792145	1171.159546	3690.690674	1276.669312	4.187675
289.163452	1166.924194	3781.785889	1282.093384	4.404408
289.534668	1174.205811	3891.233643	1289.672363	4.249738
289.905914	1167.815918	4000.755615	1285.139893	4.141421
290.277039	1171.233765	4079.516357	1283.133667	3.847628
290.648193	1176.732178	4127.144531	1292.347168	3.918604
291.019318	1181.710449	4131.603027	1300.074829	4.012498
291.390381	1175.394653	4094.154297	1299.628906	4.256405
291.761475	1169.376099	4036.569580	1287.814819	4.130824
292.132507	1168.558838	3992.433594	1280.904663	3.978428
292.503510	1171.902466	3973.486328	1279.715820	3.848300
292.874481	1167.147095	4019.182861	1279.715698	3.946956
293.245422	1170.490723	4092.593750	1276.594971	3.631092
293.616364	1173.016968	4219.279785	1275.777710	3.373338
293.987213	1176.880859	4340.690430	1292.124390	3.642556
294.358093	1170.490723	4442.262207	1294.947754	3.803965
294.728943	1168.187378	4547.623535	1309.734009	4.188469
295.099731	1162.094604	4641.765625	1303.641113	4.067813
295.470490	1170.119263	4767.113770	1312.111694	3.947530
295.841248	1162.391724	4860.363770	1310.774170	4.012536
296.211975	1168.261719	4963.718750	1316.272583	3.899685
296.582642	1167.593018	5049.390137	1329.572754	4.172803
296.953308	1180.967529	5088.250000	1334.848389	3.938309
297.323883	1175.097534	5076.881836	1335.071411	4.100019
297.694519	1164.100708	4989.798828	1318.873413	4.045607
298.065063	1152.880981	4884.734863	1306.390503	4.113492
298.435608	1155.035767	4732.785645	1305.573120	4.207599
298.806122	1164.918091	4571.475098	1304.012695	4.083143
299.176575	1170.713745	4409.940918	1306.836304	4.202316
299.547028	1168.187378	4311.712402	1296.211060	4.072616
299.917450	1168.856079	4277.162109	1289.598022	3.884493
300.287872	1163.357666	4286.301270	1296.359619	4.258865
300.658234	1171.159546	4277.533691	1302.601074	4.231349
301.028564	1169.747681	4250.487793	1305.201538	4.396796
301.398865	1174.354370	4208.580566	1291.901367	3.874036
301.769135	1170.342163	4164.370117	1283.356567	3.774661
302.139374	1167.370117	4113.992676	1285.734253	4.016943
302.509583	1163.803467	4074.835205	1284.396729	4.142630
302.879791	1162.465942	4040.061523	1289.003540	4.397337
303.249939	1168.633179	4004.768311	1279.492798	3.908827
303.620087	1177.103638	3962.638672	1280.607422	3.715759
303.990173	1181.636108	3946.960938	1273.177124	3.310317
304.360260	1181.338989	3939.604736	1273.622925	3.345723
304.730286	1180.670288	3938.118408	1278.081055	3.532642
305.100281	1182.081909	3930.836670	1279.121338	3.530305
305.470276	1174.354492	3935.443604	1293.907593	4.329926
305.840179	1164.843750	3955.208008	1293.387573	4.606704
306.210144	1159.345337	3985.375000	1300.743530	5.003422
306.579987	1168.856079	4013.758545	1293.461792	4.379964
306.949890	1173.685791	4058.563232	1294.130493	4.175037
307.319702	1172.942749	4135.986328	1296.582520	4.172729
307.689484	1167.444336	4244.022461	1301.263550	4.349612
308.059265	1169.153320	4352.653320	1310.402832	4.436925
308.429016	1171.605347	4428.813965	1319.319214	4.534984
308.798737	1170.044922	4499.550293	1321.994141	4.563717
309.168396	1164.026367	4535.215332	1320.136597	4.630717
309.538055	1163.952026	4554.236816	1314.786621	4.449025
309.907684	1169.970703	4546.063965	1314.563721	4.282850
310.277313	1170.044922	4559.363770	1318.278931	4.373563
310.646851	1171.679565	4556.911621	1325.560547	4.545656
311.016388	1164.695190	4552.676270	1329.275513	4.857770
311.385895	1174.280151	4495.537598	1324.668945	4.528068
311.755371	1176.732178	4448.355469	1324.891846	4.528629
312.124817	1177.103638	4386.535645	1323.480103	4.560822
312.494232	1167.890015	4343.736816	1321.919800	4.850039
312.863617	1162.465942	4318.771484	1321.622559	5.042497
313.232971	1164.769409	4339.650391	1327.492310	5.125323
313.602295	1168.410278	4408.529297	1336.854492	5.198704
313.971619	1167.890015	4480.825684	1339.009277	5.165185
314.340820	1165.735352	4517.977051	1341.089722	5.230958
314.710083	1172.274048	4519.462891	1337.894775	4.948054
315.079285	1177.400879	4470.200195	1336.631592	4.835725
315.448486	1177.623901	4397.532227	1333.436646	4.839043
315.817596	1173.983032	4278.647949	1336.483032	5.234059
316.186707	1171.456665	4186.958008	1331.653442	5.312442
316.555786	1173.908691	4103.664551	1334.031128	5.465385
316.924866	1172.422729	4052.469971	1328.161133	5.407495
317.293884	1171.308228	4034.043213	1320.062134	5.196217
317.662872	1170.416626	4040.359375	1317.907349	5.139152
318.031830	1170.119263	4074.538330	1325.634888	5.354449
318.400757	1173.834473	4110.575195	1341.387085	5.705393
318.769684	1176.286377	4135.317871	1354.464233	6.021492
