Jaz Data File
++++++++++++++++++++++++++++++++++++
Date: Fri Jun 04 14:08:53 2021
User: jaz
Dark Spectrum Present: Yes
Reference Spectrum Present: Yes
Processed Spectrum Present: Yes
Spectrometers: JAZA3586
Integration Time (usec): 519000 (JAZA3586)
Spectra Averaged: 10 (JAZA3586)
Boxcar Smoothing: 1 (JAZA3586)
Correct for Electrical Dark: No (JAZA3586)
Strobe/Lamp Enabled: Yes (JAZA3586)
Correct for Detector Non-linearity: No (JAZA3586)
Correct for Stray Light: No (JAZA3586)
Number of Pixels in Processed Spectrum: 2048
>>>>>Begin Processed Spectral Data<<<<<
W	D	R	S	P
191.335022	0.000000	0.000000	0.000000	0.000000
191.713211	267.935577	267.712708	260.653931	3267.218994
192.091385	537.060059	543.450073	528.069397	-140.698608
192.469528	806.704590	817.404236	797.862610	-82.638062
192.847641	811.831543	822.010986	806.555969	-51.825760
193.225739	843.335876	843.707458	831.001648	-3319.382324
193.603790	875.583252	872.536865	852.177917	768.298218
193.981842	902.852356	903.000977	878.480957	-16398.398438
194.359863	902.703796	908.202148	891.409668	-205.409332
194.737854	915.038025	914.592224	914.815125	50.000000
195.115829	908.276428	906.047363	908.499329	-9.999726
195.493774	909.762512	901.737793	894.976318	184.258087
195.871704	903.000977	893.490234	877.738098	265.624664
196.249603	921.353699	915.558105	904.264160	294.871246
196.627457	928.115234	915.409485	905.155762	180.701447
197.005310	926.629211	920.090576	901.217590	388.638000
197.383133	919.570496	905.675842	884.722473	250.801666
197.760910	930.121399	927.075012	912.214539	587.806519
198.138687	927.669434	931.310242	920.610657	-193.879395
198.516449	922.096863	932.944885	914.146301	-73.290421
198.894180	908.870911	909.985413	882.196106	-2393.428223
199.271866	910.356934	900.325989	874.022888	362.219574
199.649536	907.161926	890.666687	873.279846	205.405212
200.027191	909.019531	902.778015	888.809143	323.805756
200.404816	893.936035	900.623230	890.666687	-48.889679
200.782410	896.982422	916.672668	898.171204	6.037414
201.159988	890.072266	922.245361	901.663513	36.027767
201.537537	897.279602	942.455750	906.716064	20.888151
201.915070	892.524231	945.576416	908.276428	29.691891
202.292557	880.933044	940.746765	900.846191	33.291939
202.670029	883.607910	936.139954	908.870911	48.090649
203.047485	881.824707	928.189636	896.908203	32.532124
203.424911	885.465515	931.756104	897.279785	25.521971
203.802292	889.775085	937.031677	896.462402	14.151077
204.179688	888.140442	941.935608	900.251770	22.513784
204.557037	902.926697	940.078064	894.827637	-21.800167
204.934357	898.617126	937.774658	884.722473	-35.483986
205.311661	902.183594	935.842773	884.499512	-52.538662
205.688934	904.115479	943.050110	882.939209	-54.389290
206.066177	896.759521	925.366150	872.388245	-85.194511
206.443390	892.078430	922.691223	870.604980	-70.145348
206.820587	870.233459	912.957520	865.403809	-11.304288
207.197769	882.790710	927.520813	884.053772	2.823739
207.574921	892.078430	931.384705	891.484070	-1.512126
207.952042	900.400391	933.390808	891.855530	-25.901039
208.329147	897.428223	944.907715	885.911316	-24.256592
208.706223	1063.123413	1120.187866	1059.110962	-7.031437
209.083267	1066.838501	1134.528198	1080.212891	19.758383
209.460297	1066.615601	1132.224854	1081.104614	22.083796
209.837280	889.700867	952.858093	904.858643	24.000065
210.214264	879.521301	940.969727	886.505859	11.366537
210.591217	868.598816	922.096741	878.332458	18.194429
210.968124	882.790710	940.523743	891.335449	14.800433
211.345016	894.753418	945.427734	903.298157	16.862070
211.721893	891.335449	951.594910	898.394226	11.713973
212.098724	887.991760	941.638367	899.880310	22.160860
212.475555	889.552185	947.879822	903.595398	24.076431
212.852356	897.799805	956.944763	917.267090	32.914532
213.229126	893.044434	957.390625	916.747009	36.836021
213.605865	879.149841	938.591980	906.567566	46.125065
213.982590	872.313965	927.520813	903.966980	57.335304
214.359283	868.970398	915.038025	886.431458	37.903103
214.735931	874.468750	921.130859	887.025879	26.910761
215.112579	886.431458	934.876770	886.728699	0.613560
215.489197	890.220886	951.223450	899.062927	14.494540
215.865799	887.471680	948.994385	903.446777	25.966183
216.242355	875.583252	942.752930	899.434387	35.508781
216.618896	880.933105	947.805603	893.936035	19.444361
216.995407	882.790588	955.458679	886.357117	4.907970
217.371902	880.561523	951.743469	883.905212	4.697383
217.748367	876.549133	942.901550	880.710205	6.271168
218.124802	879.744202	943.124451	881.081726	2.110317
218.501236	882.344727	942.678711	872.536926	-16.255848
218.877609	876.400574	938.889343	869.862000	-10.463599
219.253983	870.827881	939.112122	866.369690	-6.528872
219.630295	878.703918	945.353516	871.050781	-11.482646
220.006592	884.871094	950.703308	872.016663	-19.526051
220.382889	887.917480	949.885986	881.898926	-9.712280
220.759140	884.053711	948.845703	887.620300	5.504676
221.135391	889.032043	952.709473	892.375671	5.250884
221.511581	879.224121	948.325500	885.465515	9.032228
221.887772	879.818542	952.560852	887.694519	10.827229
222.263931	885.242615	970.987976	896.090820	12.651653
222.640060	899.211487	989.043457	906.418884	8.023199
223.016159	896.982422	999.445862	906.864746	9.644732
223.392212	888.214661	991.718445	899.731628	11.127098
223.768265	878.778259	994.096008	896.165039	15.077280
224.144302	876.400635	991.346924	892.895813	14.350335
224.520294	868.524597	983.842468	891.781250	20.167431
224.896286	879.224121	996.250977	903.743958	20.952316
225.272217	891.261047	1019.581970	918.158691	20.961229
225.648148	909.390930	1053.984009	933.390686	16.598137
226.024048	899.211487	1054.801392	919.421875	12.989524
226.399902	890.815247	1059.185303	912.511719	12.886182
226.775772	870.233459	1063.569214	904.932922	17.947773
227.151581	876.252014	1096.856812	916.449707	18.221586
227.527374	873.651428	1114.615112	923.359924	20.629040
227.903137	880.933105	1156.670532	933.093506	18.916693
228.278870	884.425293	1201.697998	943.718811	18.688503
228.654572	880.041504	1274.217407	961.551514	20.678587
229.030273	879.669922	1355.281616	979.978699	21.090477
229.405930	871.570984	1439.317993	988.300537	20.560135
229.781555	878.926941	1512.432007	1001.006287	19.270460
230.157181	874.988831	1530.041626	992.981628	18.012716
230.532761	879.149719	1493.187500	989.786621	18.017931
230.908325	869.787598	1432.556641	967.272766	17.322411
231.283859	882.419128	1387.306274	979.830017	19.293596
231.659332	884.499573	1359.739868	978.418213	19.762348
232.034821	890.369568	1335.368530	977.006531	19.469027
232.410263	877.143616	1308.842407	951.520691	17.228928
232.785690	877.292236	1291.604248	944.387512	16.194384
233.161087	877.217957	1273.697266	949.440186	18.215889
233.536469	880.710205	1254.898682	956.275940	20.194565
233.911804	883.979492	1256.384644	957.019043	19.612926
234.287140	880.041504	1268.941895	955.830139	19.487930
234.662430	888.289063	1307.356323	964.895081	18.280125
235.037704	875.583313	1319.541992	969.204651	21.087849
235.412933	877.292236	1317.238647	966.381165	20.249950
235.788162	860.871399	1310.551392	951.966492	20.257759
236.163345	874.320129	1310.922974	958.430847	19.264812
236.538513	884.276672	1333.436646	974.257141	20.033056
236.913635	889.403564	1336.334473	989.043457	22.294250
237.288742	890.072266	1351.269409	1000.857605	24.021254
237.663834	883.830872	1348.371582	1001.006287	25.223928
238.038879	882.196228	1352.235229	995.507996	24.106886
238.413910	875.063171	1342.724487	981.167480	22.688280
238.788910	877.812317	1359.814087	977.080811	20.595047
239.163879	878.852600	1371.033813	977.377991	20.018112
239.538834	871.199402	1391.467163	981.241760	21.151100
239.913757	874.691589	1422.005493	1001.229187	23.119749
240.288651	875.583191	1468.816284	1015.643860	23.609720
240.663528	877.217957	1537.992188	1033.179321	23.602821
241.038361	864.883606	1596.245483	1025.674805	21.985176
241.413177	867.187012	1695.959595	1052.795288	22.395561
241.787979	864.586487	1799.686157	1079.618530	22.995628
242.162735	874.691589	1933.282593	1116.026978	22.797792
242.537476	870.010559	2040.575684	1132.967896	22.464134
242.912170	896.982422	2177.292725	1176.880737	21.861755
243.286865	902.703796	2232.945557	1196.125244	22.057755
243.661514	907.161926	2242.307373	1204.372925	22.260571
244.036148	900.920471	2153.664307	1166.404175	21.192177
244.410751	891.335449	2062.271973	1138.912109	21.143475
244.785339	886.802979	1965.901367	1103.395386	20.071609
245.159882	879.669922	1930.087524	1106.813354	21.624107
245.534378	892.449951	1957.653687	1124.051636	21.742477
245.908890	890.146545	2059.968750	1157.785034	22.878559
246.283356	883.310730	2216.747314	1190.478149	23.035774
246.657791	867.558594	2437.946533	1242.341431	23.865622
247.032196	875.508972	2692.582275	1311.220093	23.978731
247.406586	872.165344	2925.892578	1352.160889	23.371922
247.780960	873.279846	3091.513428	1378.538452	22.777519
248.155289	868.598877	3118.410889	1375.566406	22.533773
248.529602	866.444031	3021.817383	1354.018555	22.621349
248.903870	869.936218	2823.354492	1305.944580	22.320278
249.278122	867.261414	2606.167969	1250.514771	22.039906
249.652344	862.877502	2415.655762	1203.258179	21.920752
250.026550	862.877441	2276.263916	1182.973511	22.647455
250.400711	888.363281	2187.249268	1182.379150	22.636003
250.774857	894.456116	2120.154053	1175.543335	22.932829
251.148987	892.152771	2085.157471	1161.277222	22.558542
251.523071	865.923889	2081.813721	1144.930664	22.946714
251.897125	881.601746	2129.887451	1176.434937	23.619049
252.271164	876.920715	2195.273926	1190.849731	23.812208
252.645187	876.177673	2252.263916	1198.354370	23.412539
253.019165	858.419250	2267.793213	1177.549561	22.643408
253.393112	883.162109	2262.220703	1194.193359	22.553883
253.767044	885.539856	2178.407227	1187.803223	23.379301
254.140930	894.010315	2094.073975	1187.654663	24.469063
254.514801	878.926941	1991.015747	1157.116333	25.015032
254.888657	883.905212	1956.464844	1138.837891	23.768627
255.262466	876.326355	1927.041016	1118.924683	23.088888
255.636276	894.753357	1942.941772	1135.122681	22.931881
256.010010	910.282532	1968.873413	1152.806641	22.910089
256.383759	922.765442	2022.148438	1172.125366	22.681805
256.757446	900.474670	2070.965576	1173.462891	23.322540
257.131134	889.626465	2131.893555	1185.574219	23.823198
257.504791	877.515137	2215.632568	1205.338745	24.498867
257.878418	872.982727	2333.551270	1229.189819	24.388248
258.252014	875.508972	2494.342529	1279.195679	24.936888
258.625580	886.951660	2686.563477	1341.684204	25.268368
258.999115	879.967102	2915.416016	1400.234741	25.560339
259.372650	870.456360	3182.980225	1467.032837	25.797634
259.746124	864.809387	3481.454102	1524.245972	25.201609
260.119598	864.140625	3785.575439	1585.991577	24.708782
260.493042	865.775208	3991.319336	1613.037720	23.908237
260.866425	862.357239	4040.284912	1609.471069	23.509466
261.239838	869.341797	3866.639404	1569.496460	23.359531
261.613159	861.985840	3582.802734	1509.756836	23.807961
261.986511	864.289307	3283.214111	1445.633789	24.033176
262.359802	864.809387	3051.538330	1392.507324	24.131840
262.733063	865.924011	2896.989014	1354.018555	24.031460
263.106293	870.084961	2793.559326	1334.774048	24.158840
263.479523	884.573914	2749.126221	1327.269409	23.742723
263.852692	888.066162	2718.142090	1328.086792	24.043846
264.225861	871.125183	2683.591553	1317.981689	24.654610
264.598969	874.320129	2652.458740	1310.254272	24.516319
264.972076	871.645203	2641.833252	1306.390503	24.559273
265.345154	881.750305	2670.811279	1328.161133	24.952242
265.718201	867.112793	2715.021484	1343.318848	25.769999
266.091217	901.143372	2824.469482	1392.432983	25.543749
266.464203	903.372559	2931.019531	1416.135620	25.288576
266.837158	902.332214	3041.804688	1437.906250	25.032995
267.210114	871.199402	3120.639893	1423.565918	24.555731
267.583038	873.502747	3181.122314	1426.315063	23.955956
267.955902	870.604980	3213.147217	1435.751465	24.125349
268.328766	881.155945	3208.168701	1443.404663	24.161825
268.701569	877.292236	3200.143799	1434.339722	23.981192
269.074371	878.406738	3198.955078	1433.893921	23.937756
269.447144	868.598816	3230.385010	1434.785522	23.972818
269.819885	863.769226	3292.725342	1454.921753	24.337721
270.192596	864.958008	3395.708740	1491.181274	24.744566
270.565277	890.146667	3550.852783	1555.676147	25.013266
270.937927	892.747131	3735.123047	1609.471191	25.215668
271.310577	893.118652	3948.966553	1653.384155	24.879036
271.683136	870.307800	4153.447754	1692.318848	25.037344
272.055725	869.862000	4307.625977	1709.779907	24.432100
272.428284	869.638977	4343.291504	1703.464233	24.004278
272.800812	863.694824	4277.235840	1675.897827	23.793562
273.173279	868.301575	4140.890625	1658.511108	24.146311
273.545776	871.570862	4038.352783	1637.929199	24.199909
273.918152	886.654358	3939.901611	1622.771484	24.109318
274.290558	882.493408	3875.852783	1600.852051	23.998409
274.662964	883.756531	3799.544189	1581.904907	23.943733
275.035278	875.211731	3758.529053	1555.824585	23.605200
275.407593	880.190125	3768.559814	1562.437500	23.620501
275.779907	884.276672	3840.707764	1591.341431	23.916159
276.152161	878.852600	3895.394531	1609.842773	24.232719
276.524384	879.372620	3979.207764	1621.434082	23.938740
276.896606	874.914551	4027.950439	1621.136719	23.666782
277.268799	879.818542	4085.237549	1625.297852	23.256845
277.640930	872.611145	4090.439209	1627.155273	23.448864
278.013031	873.428467	4085.832764	1632.728027	23.636488
278.385162	866.889832	4072.904053	1635.477173	23.973299
278.757233	871.868164	4064.358643	1632.579468	23.828146
279.129272	867.855774	4085.906494	1640.752808	24.017553
279.501282	871.050842	4108.940430	1639.341187	23.728121
279.873230	869.490479	4170.463379	1663.192383	24.044483
280.245178	864.958008	4265.570801	1687.192017	24.178995
280.617126	872.016785	4425.172852	1749.977905	24.709332
280.988983	868.004395	4597.332520	1787.723511	24.661791
281.360870	893.193054	4778.631348	1845.530884	24.510435
281.732697	883.830872	4945.663574	1878.744141	24.494196
282.104492	887.100281	5074.355957	1918.347534	24.628237
282.476288	873.502747	5156.831543	1919.462280	24.419313
282.848053	878.555420	5181.648926	1933.282593	24.510904
283.219757	884.351013	5183.135254	1931.350586	24.355713
283.591461	881.601807	5136.992676	1942.124512	24.921865
283.963135	883.087891	5087.804688	1921.839844	24.704445
284.334747	880.710144	5098.132324	1934.099731	24.977097
284.706360	889.552063	5171.543457	1947.994263	24.718456
285.077942	902.034973	5327.802246	1995.473755	24.706196
285.449524	901.366272	5445.943848	2019.919434	24.612919
285.821014	886.654358	5542.166016	2014.495483	24.225931
286.192535	869.564758	5653.693848	2025.937988	24.171032
286.563995	868.598816	5747.167480	2040.055664	24.012304
286.935425	878.704041	5800.293457	2058.780029	23.977537
287.306824	877.440918	5718.857422	2033.517090	23.878883
287.678223	869.193298	5577.756348	1986.111694	23.721004
288.049561	881.601807	5462.587402	1961.963257	23.583605
288.420898	884.722473	5336.421387	1951.486694	23.963081
288.792145	893.861633	5298.526855	1967.981934	24.385971
289.163452	875.731934	5309.598145	1985.591675	25.031422
289.534668	876.846436	5454.265625	2005.504761	24.657091
289.905914	871.570862	5621.372559	2033.293945	24.458349
290.277039	885.837097	5826.002441	2089.466797	24.364157
290.648193	902.926697	6017.480469	2160.723145	24.592495
291.019318	907.459167	6136.587891	2176.846924	24.275318
291.390381	881.676086	6108.353027	2143.113281	24.134594
291.761475	862.580261	6010.421387	2087.980713	23.804161
292.132507	862.283142	5892.057129	2074.085938	24.092588
292.503510	872.016785	5806.534668	2082.853760	24.538099
292.874481	909.465332	5798.955566	2140.215576	25.171341
293.245422	912.734680	5834.175293	2174.320557	25.634485
293.616364	917.787292	5989.542480	2233.019775	25.932489
293.987213	881.676086	6126.482422	2270.988281	26.489296
294.358093	875.806152	6340.845703	2341.130371	26.812693
294.728943	862.357361	6537.450684	2381.179443	26.762943
295.099731	860.202576	6759.987793	2417.141846	26.389761
295.470490	860.128235	6917.806152	2447.085693	26.197456
295.841248	871.422180	7023.242188	2494.193604	26.378723
296.211975	869.787598	7114.931152	2535.431885	26.671032
296.582642	870.530579	7278.471191	2575.778320	26.611481
296.953308	864.363525	7447.732910	2599.257813	26.352682
297.323883	864.214905	7554.729004	2588.632568	25.774069
297.694519	867.632813	7561.192871	2563.666748	25.338295
298.065063	874.245789	7480.798340	2511.431885	24.781246
298.435608	874.394348	7270.520996	2450.057861	24.634653
298.806122	871.347900	6948.642090	2356.659424	24.440344
299.176575	877.366516	6616.136719	2283.768555	24.507030
299.547028	875.657532	6392.040527	2214.221191	24.265244
299.917450	867.484314	6259.707031	2188.438232	24.497391
300.287872	857.899231	6173.070313	2161.614746	24.528196
300.658234	855.149963	6097.652832	2160.871826	24.906460
301.028564	862.728821	6033.306152	2147.348633	24.844807
301.398865	858.345032	5968.812012	2142.890381	25.135578
301.769135	867.558594	5911.450684	2121.565430	24.861889
302.139374	873.874329	5877.642090	2120.079834	24.905344
302.509583	869.193176	5839.673828	2096.005615	24.681971
302.879791	869.861877	5772.207031	2089.318359	24.874962
303.249939	863.471863	5682.449219	2064.872314	24.930609
303.620087	875.508972	5592.691406	2060.562988	25.122070
303.990173	871.719482	5519.429199	2053.652588	25.430441
304.360260	880.561523	5475.664551	2062.197754	25.715120
304.730286	886.208496	5456.123047	2075.349365	26.021074
305.100281	897.354004	5459.986816	2089.392334	26.126106
305.470276	886.282776	5458.724121	2099.572021	26.534824
305.840179	874.022888	5460.581543	2110.197266	26.952110
306.210144	860.797058	5468.680176	2104.327393	26.987017
306.579987	881.750488	5496.767090	2115.918701	26.742443
306.949890	890.815369	5536.221191	2115.398438	26.361164
307.319702	900.326111	5617.062500	2151.509521	26.526464
307.689484	877.812317	5704.368652	2165.998535	26.689554
308.059265	875.508972	5839.971191	2198.394775	26.647110
308.429016	860.054016	5948.229980	2220.685547	26.741049
308.798737	863.917725	6082.568848	2247.805908	26.518120
309.168396	860.202576	6199.150391	2251.966797	26.068136
309.538055	872.462585	6285.712891	2250.257813	25.452271
309.907684	875.434631	6297.155762	2214.518311	24.698500
310.277313	876.846375	6322.566895	2198.394775	24.267649
310.646851	873.131287	6336.981934	2186.134521	24.030729
311.016388	887.323059	6370.492676	2208.276611	24.091059
311.385895	913.700500	6334.529785	2215.038574	24.006256
311.755371	910.505554	6279.322754	2190.072998	23.833319
312.124817	894.456238	6213.639160	2149.800537	23.600321
312.494232	875.880432	6138.296387	2112.574951	23.500509
312.863617	873.279846	6075.064453	2086.420166	23.321619
313.232971	876.697754	6022.087402	2088.649414	23.554129
313.602295	861.911560	6013.021973	2090.655518	23.853962
313.971619	867.409973	6070.234863	2114.729736	23.973896
314.340820	864.289246	6100.625000	2122.531494	24.029058
314.710083	878.852600	6168.463379	2133.974365	23.728056
315.079285	885.539856	6170.543457	2133.008301	23.603930
315.448486	904.041199	6187.484375	2141.478760	23.421041
315.817596	912.065918	6070.086426	2117.256104	23.365362
316.186707	907.904968	5901.642090	2077.503906	23.421314
316.555786	890.072266	5695.525879	2029.727539	23.715874
316.924866	878.481018	5517.720215	2007.213745	24.330124
317.293884	881.304504	5430.042969	2004.093140	24.683517
317.662872	889.552185	5398.835449	2005.579102	24.749540
318.031830	875.583252	5429.448242	2013.752441	24.993475
318.400757	878.852539	5474.996094	2041.170288	25.288979
318.769684	867.112793	5520.470215	2054.098877	25.508165
319.138550	864.586426	5529.832031	2057.665283	25.573763
319.507416	859.905334	5513.335938	2057.070801	25.726515
319.876190	855.521484	5490.599609	2037.455078	25.499756
320.244995	887.025879	5484.209473	2042.359009	25.131325
320.613770	887.694580	5437.770508	2008.699829	24.637066
320.982483	898.171204	5387.839355	2006.842285	24.693834
321.351166	876.623474	5320.148926	1984.328491	24.928518
321.719818	873.651367	5312.198730	1982.322266	24.978237
