Jaz Data File
++++++++++++++++++++++++++++++++++++
Date: Fri Jun 04 13:38:22 2021
User: jaz
Dark Spectrum Present: Yes
Reference Spectrum Present: Yes
Processed Spectrum Present: Yes
Spectrometers: JAZA3586
Integration Time (usec): 30700 (JAZA3586)
Spectra Averaged: 10 (JAZA3586)
Boxcar Smoothing: 1 (JAZA3586)
Correct for Electrical Dark: No (JAZA3586)
Strobe/Lamp Enabled: Yes (JAZA3586)
Correct for Detector Non-linearity: No (JAZA3586)
Correct for Stray Light: No (JAZA3586)
Number of Pixels in Processed Spectrum: 2048
>>>>>Begin Processed Spectral Data<<<<<
W	D	R	S	P
191.335022	0.000000	0.000000	0.000000	0.000000
191.713211	290.375031	294.164459	294.461700	107.843956
192.091385	586.397034	587.808777	588.106018	121.054909
192.469528	886.431458	888.140381	883.533691	-169.566772
192.847641	899.657288	900.549011	895.942200	-416.618744
193.225739	907.161926	913.180420	906.047363	-18.518969
193.603790	918.233093	923.137024	918.233093	0.000000
193.981842	924.771729	924.102966	922.171082	388.874695
194.359863	931.310242	928.486816	926.480652	171.054276
194.737854	934.653809	925.366150	922.839844	127.200676
195.115829	935.174011	929.155518	922.022461	218.518967
195.493774	934.951111	928.561096	926.406311	133.721130
195.871704	940.003723	937.700378	931.310303	377.425934
196.249603	938.814880	935.991394	930.047180	310.527466
196.627457	935.025391	938.889160	930.195740	-124.998421
197.005310	920.982178	929.972900	929.749939	97.520096
197.383133	924.548767	937.551758	925.291748	5.713923
197.760910	929.972839	945.502136	927.372253	-16.746321
198.138687	931.756165	951.372070	922.765564	-45.833218
198.516449	930.195801	942.307129	922.988464	-59.509052
198.894180	923.359863	927.223694	914.072083	-240.377533
199.271866	918.010193	920.759338	916.375488	-59.462280
199.649536	919.273254	924.548828	922.616882	63.379417
200.027191	918.976074	921.428040	926.183411	293.941193
200.404816	923.805725	929.304016	927.743835	71.624260
200.782410	924.177246	933.687988	926.406311	23.437340
201.159988	923.582764	952.189270	917.638672	-20.778811
201.537537	923.731445	956.944763	910.505554	-39.821049
201.915070	915.632385	959.916809	908.425049	-16.275105
202.292557	918.010071	958.579407	913.849121	-10.256391
202.670029	919.793457	961.402893	914.963684	-11.607398
203.047485	918.530273	956.944641	911.620117	-17.988468
203.424911	913.403320	959.619629	910.356934	-6.591584
203.802292	911.917297	958.505066	909.019531	-6.220015
204.179688	908.647949	966.529785	906.047363	-4.492922
204.557037	911.397217	959.619629	902.555176	-18.335958
204.934357	906.641785	962.443115	911.694336	9.054536
205.311661	908.722351	953.303894	913.626282	10.999912
205.688934	910.654114	957.687744	911.917297	2.685703
206.066177	911.397156	956.870422	904.784180	-14.542558
206.443390	906.418945	960.288330	902.480896	-7.310366
206.820587	905.304382	957.984924	914.889343	18.194500
207.197769	904.932861	956.573242	913.997742	17.553860
207.574921	910.059753	965.638184	920.982178	19.652271
207.952042	908.350769	968.610291	909.762451	2.342671
208.329147	904.412781	961.477234	911.991516	13.281010
208.706223	918.233093	968.164490	916.672607	-3.125260
209.083267	914.666504	964.226379	918.232971	7.196280
209.460297	920.164856	964.375000	917.044189	-7.058712
209.837280	904.784363	950.108887	902.629456	-4.754395
210.214264	907.830750	954.492737	898.840027	-19.267767
210.591217	904.858582	955.161438	888.363342	-32.791855
210.968124	904.709961	961.625793	889.552185	-26.631914
211.345016	901.514893	961.848694	889.849365	-19.334978
211.721893	901.737793	969.056152	898.096924	-5.408434
212.098724	902.778076	963.409119	890.815247	-19.730536
212.475555	905.378723	967.941589	890.741028	-23.396778
212.852356	903.223938	969.947754	890.963928	-18.374264
213.229126	908.425110	969.056152	897.056824	-18.749943
213.605865	907.682068	963.037598	901.291992	-11.543699
213.982590	908.870911	955.310059	900.920410	-17.120255
214.359283	904.561340	954.789978	910.877014	12.573851
214.735931	907.087646	952.783752	904.115479	-6.504204
215.112579	912.214539	956.350281	907.013245	-11.784766
215.489197	902.406555	959.693909	903.298157	1.556367
215.865799	899.508789	964.895203	911.620117	18.522697
216.242355	891.632629	965.415283	907.607727	21.651564
216.618896	894.010315	957.464844	902.257996	12.997781
216.995407	896.239441	954.269836	894.530457	-2.944981
217.371902	899.954529	948.919983	892.227051	-15.781489
217.748367	901.886414	949.811707	893.267273	-17.984533
218.124802	895.942200	947.359680	894.456055	-2.890350
218.501236	895.645020	954.566956	893.341614	-3.909250
218.877609	905.527344	964.226379	892.152771	-22.784996
219.253983	911.620117	975.371826	899.583069	-18.881138
219.630295	911.620117	978.789734	904.709961	-10.287622
220.006592	906.344543	971.136536	909.168030	4.357770
220.382889	901.291992	971.582336	909.836731	12.156348
220.759140	905.081482	967.198547	911.322937	10.047891
221.135391	903.372559	971.136536	914.294922	16.118244
221.511581	909.242432	961.997314	908.202148	-1.971918
221.887772	907.236267	960.808411	913.700500	12.066408
222.263931	913.774902	963.409119	909.390930	-8.832561
222.640060	912.065918	968.090149	910.059753	-3.580887
223.016159	910.951416	971.210754	910.951416	0.000000
223.392212	906.790344	971.730957	912.511719	8.810164
223.768265	902.778015	978.566833	914.889404	15.980443
224.144302	906.567444	982.876404	906.790466	0.292262
224.520294	910.579834	988.300476	906.790466	-4.875626
224.896286	907.459167	985.551270	906.344543	-1.427320
225.272217	904.487061	988.151855	904.115479	-0.444132
225.648148	901.143372	988.671936	902.629395	1.697758
226.024048	908.350769	988.077637	893.638855	-18.452894
226.399902	910.059753	987.408875	900.326111	-12.584038
226.775772	905.527344	995.359314	896.833801	-9.677560
227.151581	902.852356	1007.024719	905.007141	2.068481
227.527374	894.902039	1014.380676	900.251770	4.477563
227.903137	896.165039	1030.504395	903.223877	5.254482
228.278870	898.988586	1044.919067	905.898743	4.735239
228.654572	896.016418	1060.299683	908.202148	7.417511
229.030273	893.415833	1062.454468	905.007141	6.857195
229.405930	895.793518	1063.569214	904.338379	5.093027
229.781555	903.892578	1068.398804	904.709961	0.496870
230.157181	913.997742	1072.931274	906.939026	-4.441300
230.532761	913.849121	1073.599976	899.880310	-8.744123
230.908325	915.409485	1064.312134	897.651184	-11.926115
231.283859	911.471497	1056.658813	903.000977	-5.834201
231.659332	911.694397	1052.052124	909.836731	-1.323522
232.034821	903.892578	1049.377319	915.632385	8.069442
232.410263	898.096985	1045.439331	916.301086	12.354969
232.785690	888.883484	1039.643677	918.455994	19.615595
233.161087	889.329285	1041.947144	910.728516	14.021446
233.536469	900.846191	1047.148193	909.836853	6.145276
233.911804	901.143372	1060.522827	902.034973	0.559421
234.287140	901.886414	1064.535034	901.960754	0.045706
234.662430	892.152771	1061.414429	895.050598	1.712040
235.037704	898.394226	1063.569214	897.799805	-0.359874
235.412933	906.938965	1061.785889	902.406555	-2.927026
235.788162	906.938965	1067.878540	903.892639	-1.892838
236.163345	908.796570	1060.745605	907.607727	-0.782396
236.538513	901.069153	1064.312134	908.276428	4.415060
236.913635	895.867920	1073.377197	919.347473	13.227226
237.288742	892.524353	1080.138672	916.523987	12.792006
237.663834	895.570740	1092.250000	925.217468	15.073643
238.038879	900.251770	1087.866089	913.551941	7.089102
238.413910	903.818298	1096.039429	914.740723	5.682219
238.788910	905.155701	1097.971313	908.499329	1.734106
239.163879	907.384766	1111.345825	914.146301	3.315111
239.538834	905.898743	1119.147461	919.421875	6.341484
239.913757	906.047363	1138.763550	915.706787	4.150732
240.288651	909.539551	1160.014038	919.570496	4.004777
240.663528	906.121643	1188.323364	920.685059	5.160640
241.038361	900.400391	1210.094116	921.873840	6.933770
241.413177	897.279602	1237.734741	917.712952	6.001774
241.787979	901.514893	1268.644653	919.421875	4.877562
242.162735	907.904968	1314.638062	918.158691	2.520996
242.537476	909.019470	1344.582031	915.260925	1.432964
242.912170	906.938965	1363.380493	914.294922	1.611588
243.286865	903.521057	1361.745850	914.220703	2.335021
243.661514	903.372498	1346.811035	913.254700	2.228539
244.036148	910.134033	1335.591309	911.397156	0.296886
244.410751	911.991638	1318.427368	906.790344	-1.279733
244.785339	908.127930	1327.863892	904.635681	-0.832011
245.159882	905.675964	1339.157959	904.487061	-0.274268
245.534378	906.641846	1374.600220	913.552002	1.476660
245.908890	908.870850	1432.853638	926.034851	3.275680
246.283356	909.242371	1516.518555	929.452698	3.328029
246.657791	908.053528	1598.623047	931.830383	3.443079
247.032196	910.282654	1666.907227	929.452698	2.533627
247.406586	909.019531	1703.761353	930.047180	2.645847
247.780960	909.985413	1715.204102	935.619873	3.183540
248.155289	910.505554	1695.513794	935.842773	3.227637
248.529602	906.195984	1655.018677	928.486816	2.976784
248.903870	905.898743	1599.588989	913.774841	1.135391
249.278122	910.728455	1532.493652	907.384827	-0.537764
249.652344	910.282532	1478.624023	909.465332	-0.143787
250.026550	914.517883	1438.946411	916.375488	0.354215
250.400711	908.945129	1419.033325	920.610657	2.286963
250.774857	910.431213	1411.454468	920.313477	1.972416
251.148987	905.304382	1426.017944	913.031799	1.484005
251.523071	902.257996	1457.224976	914.666504	2.235900
251.897125	899.805969	1495.490845	916.821289	2.856430
252.271164	896.313782	1516.741577	925.366150	4.682635
252.645187	899.360168	1517.484497	929.378479	4.856355
253.019165	906.790466	1494.822266	933.762207	4.586782
253.393112	907.904968	1476.469360	944.461853	6.429682
253.767044	903.372498	1455.664551	947.805420	8.045186
254.140930	894.976257	1439.243774	943.421631	8.901022
254.514801	902.852356	1423.268555	930.344299	5.282684
254.888657	908.499329	1417.844604	922.765442	2.800873
255.262466	909.539551	1426.835083	915.558105	1.163465
255.636276	903.149597	1434.934204	917.638611	2.724602
256.010010	904.858582	1458.636719	918.455994	2.455390
256.383759	909.539551	1485.608765	924.994629	2.682851
256.757446	915.335205	1529.595825	921.651062	1.028205
257.131134	907.830750	1568.827759	917.638611	1.483798
257.504791	910.356934	1631.464844	911.768738	0.195783
257.878418	908.053528	1711.117554	917.638611	1.193564
258.252014	911.248596	1809.196899	927.149414	1.770794
258.625580	909.019531	1926.372437	936.214355	2.673096
258.999115	901.886414	2067.621826	941.044006	3.359046
259.372650	904.932800	2236.586182	940.821106	2.695019
259.746124	900.549011	2375.755127	948.177002	3.228565
260.119598	897.799805	2457.636719	952.412292	3.501167
260.493042	900.697571	2459.940186	945.279114	2.859179
260.866425	902.332275	2388.312256	942.158508	2.680133
261.239838	908.870911	2272.251709	929.304199	1.498722
261.613159	900.697571	2137.837891	928.041016	2.210214
261.986511	903.966980	2037.157715	916.969910	1.147462
262.359802	900.697571	1970.285156	919.347473	1.743654
262.733063	897.502625	1942.718872	920.536438	2.203737
263.106293	896.239441	1929.864624	932.127625	3.472069
263.479523	907.682129	1914.038086	937.625977	2.975473
263.852692	912.957581	1896.279663	937.328796	2.478457
264.225861	911.917297	1879.487305	937.031555	2.595601
264.598969	900.697571	1885.728882	924.548645	2.421352
264.972076	894.010315	1907.573853	928.635315	3.416165
265.345154	901.143372	1958.173828	926.109131	2.361877
265.718201	903.149597	2023.040161	932.573425	2.627384
266.091217	913.031921	2088.054932	933.390808	1.732637
266.464203	906.270325	2145.565430	926.480652	1.630792
266.837158	908.276428	2190.146973	922.988464	1.147701
267.210114	903.818298	2228.784424	925.663330	1.648724
267.583038	908.647949	2253.155762	932.350586	1.762923
267.955902	911.397156	2267.644775	936.585876	1.857236
268.328766	912.511719	2270.022461	934.282471	1.603726
268.701569	906.716125	2277.526855	937.328857	2.233184
269.074371	906.939026	2296.399658	939.334961	2.331547
269.447144	910.505554	2342.541992	942.232849	2.215537
269.819885	911.620117	2416.101563	945.873718	2.276771
270.192596	911.843018	2523.320313	947.731262	2.227040
270.565277	907.384766	2670.588135	950.628967	2.452593
270.937927	908.202148	2812.358154	950.628967	2.228117
271.310577	904.041199	2922.845947	957.687805	2.657345
271.683136	904.784180	2979.093018	956.944824	2.514604
272.055725	901.589172	2992.021729	956.127380	2.608944
272.428284	901.663513	2964.827148	956.498840	2.657827
272.800812	901.737793	2915.787354	958.505066	2.818564
273.173279	901.886414	2842.376221	954.938538	2.733955
273.545776	900.994812	2804.555908	949.365906	2.541085
273.918152	901.514893	2764.803955	947.211121	2.452450
274.290558	904.487000	2763.021240	953.601074	2.642624
274.662964	905.452942	2738.798096	955.830261	2.747836
275.035278	902.555176	2755.516357	956.573242	2.915229
275.407593	907.236267	2785.460205	953.526917	2.464597
275.779907	906.195984	2853.150391	951.297791	2.316531
276.152161	907.384766	2912.963867	951.446350	2.196951
276.524384	897.056702	2960.666260	955.384338	2.826486
276.896606	899.285828	2994.325439	955.161438	2.667043
277.268799	900.474670	2998.635010	963.111816	2.985336
277.640930	901.217773	3007.253906	955.384338	2.571968
278.013031	904.561340	3017.210693	962.666016	2.750323
278.385162	903.818298	3042.399170	953.303955	2.313948
278.757233	901.069092	3051.984375	949.588867	2.255774
279.129272	899.954590	3071.748779	945.947937	2.117758
279.501282	899.731628	3105.705078	950.554749	2.303886
279.873230	905.378662	3175.475342	960.139832	2.412284
280.245178	911.025696	3283.883057	955.681641	1.881948
280.617126	917.341370	3417.182373	946.988220	1.185949
280.988983	918.233093	3555.756836	948.845764	1.160660
281.360870	914.369324	3686.306641	963.409119	1.769152
281.732697	912.660339	3783.643311	972.325378	2.078209
282.104492	911.917236	3835.803711	980.647278	2.350640
282.476288	914.146423	3831.196533	976.486328	2.137087
282.848053	912.214539	3815.964844	976.412048	2.210848
283.219757	911.620117	3812.769775	971.359558	2.059164
283.591461	909.985413	3805.191406	974.034363	2.212241
283.963135	907.830750	3818.119873	982.281921	2.558205
284.334747	907.087646	3878.601807	987.260254	2.698039
284.706360	900.771912	3982.997314	985.254089	2.740947
285.077942	897.651123	4096.309082	982.059082	2.638855
285.449524	901.737793	4188.444336	976.040527	2.260705
285.821014	900.177429	4207.986328	979.309875	2.392292
286.192535	903.075256	4252.790527	984.139465	2.420033
286.563995	896.536621	4252.790527	986.145691	2.669913
286.935425	898.691406	4246.771973	994.096130	2.849535
287.306824	905.007080	4154.339355	997.291199	2.840095
287.678223	912.957520	4069.114258	999.445984	2.740309
288.049561	915.781006	4006.625244	990.083740	2.403962
288.420898	910.654114	3983.368408	984.733948	2.410892
288.792145	913.626282	4018.959717	978.046692	2.074509
289.163452	912.660339	4134.500488	976.337708	1.976429
289.534668	912.808899	4292.839355	975.446106	1.853155
289.905914	908.870911	4434.980957	984.288086	2.138821
290.277039	914.220703	4534.249512	990.158020	2.097699
290.648193	910.208313	4581.431641	991.198303	2.206076
291.019318	903.743958	4572.960938	986.591553	2.257909
291.390381	901.886414	4503.784668	990.158020	2.450697
291.761475	905.007141	4411.426758	994.541809	2.553450
292.132507	910.654236	4352.875977	998.405579	2.549265
292.503510	901.143494	4340.616211	993.427307	2.683080
292.874481	905.378662	4400.652832	1001.080505	2.738035
293.245422	907.236267	4506.088379	997.291077	2.502321
293.616364	912.734680	4680.476563	998.405701	2.273803
293.987213	910.208313	4840.153809	991.198303	2.060843
294.358093	906.567566	4956.140137	998.479980	2.269682
294.728943	908.202148	5062.838867	1002.566650	2.271306
295.099731	910.356873	5194.503418	1000.486145	2.103786
295.470490	910.133972	5331.814941	1007.990723	2.213112
295.841248	905.007141	5464.296875	1010.219910	2.307657
296.211975	903.298157	5576.196777	1017.947266	2.453490
296.582642	904.264099	5709.569824	1015.941101	2.324035
296.953308	904.412659	5781.643066	1021.142334	2.393360
297.323883	907.979187	5770.943848	1020.993713	2.323984
297.694519	902.183594	5639.873535	1013.563477	2.350932
298.065063	910.282532	5491.268066	1008.139343	2.136152
298.435608	903.743958	5310.118652	1007.842102	2.362444
298.806122	896.239319	5126.516113	1010.071106	2.690883
299.176575	900.325989	4927.979004	1004.572754	2.588276
299.547028	905.007141	4815.781738	995.062012	2.302737
299.917450	913.106201	4759.460938	986.517273	1.908588
300.287872	908.499329	4750.247559	985.328308	1.999844
300.658234	905.081543	4722.829590	988.300476	2.179791
301.028564	907.384827	4699.052246	995.136292	2.314324
301.398865	906.047424	4647.337891	994.616211	2.367332
301.769135	906.196045	4590.199219	998.554199	2.507005
302.139374	905.452942	4539.079590	999.817383	2.596977
302.509583	895.719299	4489.964844	994.616211	2.751535
302.879791	897.428223	4420.417480	991.867004	2.680644
303.249939	901.366272	4371.897949	987.854736	2.492081
303.620087	911.471497	4335.117676	992.758728	2.374288
303.990173	910.356934	4337.272949	989.489258	2.309141
304.360260	910.579834	4326.201660	996.696594	2.521261
304.730286	905.229980	4312.530273	999.074402	2.754216
305.100281	898.914307	4302.053223	993.427307	2.777230
305.470276	893.118652	4330.659668	977.600891	2.457636
305.840179	894.456116	4362.906738	975.743347	2.343618
306.210144	899.657410	4403.848145	979.086914	2.266701
306.579987	904.338379	4423.314941	989.712219	2.426099
306.949890	909.836914	4466.262207	992.981506	2.337870
307.319702	908.573730	4555.722656	998.034119	2.452886
307.689484	909.688232	4673.715332	992.907227	2.210903
308.059265	916.152527	4802.630371	988.894836	1.871677
308.429016	918.233093	4897.069336	992.610046	1.869314
308.798737	920.313477	4971.595215	1001.303528	1.999122
309.168396	905.675842	5032.746582	1006.058838	2.432306
309.538055	902.406555	5069.823242	1001.600647	2.380230
309.907684	892.524231	5069.674805	999.297302	2.556122
310.277313	897.131042	5084.312012	1007.470520	2.635173
310.646851	901.143372	5071.829590	1013.563477	2.695482
311.016388	907.830566	5064.473145	1020.102051	2.701014
311.385895	905.007141	4996.263184	1014.677979	2.680615
311.755371	905.675842	4930.431641	1004.647156	2.459064
312.124817	907.310547	4863.855957	993.501648	2.178443
312.494232	911.322815	4804.934082	992.907288	2.095342
312.863617	906.864746	4780.265625	995.433533	2.286590
313.232971	900.251770	4804.339844	1000.263184	2.561710
313.602295	899.360168	4883.323730	991.644043	2.316383
313.971619	895.645020	4987.792969	1000.337585	2.558377
314.340820	897.874023	5022.641113	996.548096	2.392234
314.710083	899.360168	5028.213867	1002.715271	2.503240
315.079285	907.607727	4951.162109	1002.343689	2.342888
315.448486	911.620056	4873.218262	1007.247742	2.413866
315.817596	909.390930	4723.201172	1007.024841	2.560010
316.186707	904.784241	4579.054199	997.439758	2.521739
316.555786	907.087585	4472.949219	989.192139	2.302516
316.924866	912.808899	4415.884766	989.712219	2.195308
317.293884	918.530273	4422.126465	990.603943	2.057134
317.662872	914.443665	4445.605957	994.244690	2.259908
318.031830	913.329102	4509.506348	998.182800	2.359553
318.400757	911.248535	4545.097656	996.473816	2.345317
318.769684	905.007141	4576.229980	1000.486145	2.600741
319.138550	903.521057	4565.084961	998.405701	2.591369
319.507416	901.366272	4539.524902	991.346924	2.473247
319.876190	906.195984	4483.797852	987.185974	2.263807
320.244995	908.499329	4397.160645	983.025085	2.136228
320.613770	908.425110	4349.161133	988.449158	2.325783
320.982483	910.282654	4342.622559	992.907288	2.407239
321.351166	902.629395	4394.634277	986.442871	2.400153
321.719818	895.867920	4458.237793	987.334534	2.567578
322.088440	894.084656	4582.694824	990.232361	2.606611
322.457062	894.902039	4755.596680	1003.606873	2.815681
322.825623	903.372559	4959.111816	1011.334290	2.661949
323.194183	904.264099	5104.968262	1009.996887	2.517025
323.562653	898.914307	5203.567871	1002.195068	2.399282
323.931183	899.211487	5218.577637	998.702820	2.303378
324.299591	894.827637	5180.014160	1000.708984	2.470869
324.668060	905.081482	5083.271973	1004.498535	2.379428
