Jaz Data File
++++++++++++++++++++++++++++++++++++
Date: Fri Jun 04 13:38:11 2021
User: jaz
Dark Spectrum Present: Yes
Reference Spectrum Present: Yes
Processed Spectrum Present: Yes
Spectrometers: JAZA3586
Integration Time (usec): 30700 (JAZA3586)
Spectra Averaged: 10 (JAZA3586)
Boxcar Smoothing: 1 (JAZA3586)
Correct for Electrical Dark: No (JAZA3586)
Strobe/Lamp Enabled: Yes (JAZA3586)
Correct for Detector Non-linearity: No (JAZA3586)
Correct for Stray Light: No (JAZA3586)
Number of Pixels in Processed Spectrum: 2048
>>>>>Begin Processed Spectral Data<<<<<
W	D	R	S	P
191.335022	0.000000	0.000000	0.000000	0.000000
191.713211	290.375031	294.164459	298.548309	215.686310
192.091385	586.397034	587.808777	595.536255	647.371399
192.469528	886.431458	888.140381	894.679016	482.617249
192.847641	899.657288	900.549011	896.685242	-333.292267
193.225739	907.161926	913.180420	903.372498	-62.963078
193.603790	918.233093	923.137024	908.647949	-195.458389
193.981842	924.771729	924.102966	914.220703	1577.694580
194.359863	931.310242	928.486816	926.406433	173.682953
194.737854	934.653809	925.366150	930.641602	43.199337
195.115829	935.174011	929.155518	934.579651	9.875566
195.493774	934.951111	928.561096	926.406311	133.721130
195.871704	940.003723	937.700378	920.462097	848.402161
196.249603	938.814880	935.991394	918.084412	734.215332
196.627457	935.025391	938.889160	920.684998	-371.150330
197.005310	920.982178	929.972900	931.681824	119.007629
197.383133	924.548767	937.551758	939.557922	115.428482
197.760910	929.972839	945.502136	944.461914	93.301552
198.138687	931.756165	951.372070	940.078064	42.424244
198.516449	930.195801	942.307129	929.675598	-4.295174
198.894180	923.359863	927.223694	919.273254	-105.765739
199.271866	918.010193	920.759338	917.489990	-18.922338
199.649536	919.273254	924.548828	913.997803	-99.997688
200.027191	918.976074	921.428040	915.706726	-133.335815
200.404816	923.805725	929.304016	909.762512	-255.410507
200.782410	924.177246	933.687988	912.363098	-124.218994
201.159988	923.582764	952.189270	906.270325	-60.519234
201.537537	923.731445	956.944763	914.220703	-28.635326
201.915070	915.632385	959.916809	914.815002	-1.845757
202.292557	918.010071	958.579407	924.623047	16.300430
202.670029	919.793457	961.402893	923.211243	8.213967
203.047485	918.530273	956.944641	921.725159	8.316902
203.424911	913.403320	959.619629	918.604492	11.253975
203.802292	911.917297	958.505066	913.477600	3.349168
204.179688	908.647949	966.529785	916.078186	12.836905
204.557037	911.397217	959.619629	910.802734	-1.232793
204.934357	906.641785	962.443115	910.951355	7.723060
205.311661	908.722351	953.303894	910.059753	2.999902
205.688934	910.654114	957.687744	917.638611	14.850006
206.066177	911.397156	956.870422	916.449707	11.111036
206.443390	906.418945	960.288330	913.254700	12.689498
206.820587	905.304382	957.984924	909.168152	7.334339
207.197769	904.932861	956.573242	908.202148	6.330873
207.574921	910.059753	965.638184	908.870850	-2.139146
207.952042	908.350769	968.610291	909.539612	1.972871
208.329147	904.412781	961.477234	915.260925	19.010336
208.706223	918.233093	968.164490	929.378418	22.321276
209.083267	914.666504	964.226379	923.285645	17.391369
209.460297	920.164856	964.375000	919.347595	-1.848582
209.837280	904.784363	950.108887	903.075195	-3.770955
210.214264	907.830750	954.492737	901.291992	-14.013028
210.591217	904.858582	955.161438	903.521057	-2.658943
210.968124	904.709961	961.625793	905.378662	1.174895
211.345016	901.514893	961.848694	905.898743	7.265994
211.721893	901.737793	969.056152	903.372559	2.428410
212.098724	902.778076	963.409119	905.378662	4.289199
212.475555	905.378723	967.941589	911.397156	9.619816
212.852356	903.223938	969.947754	906.047363	4.231511
213.229126	908.425110	969.056152	905.527344	-4.779344
213.605865	907.682068	963.037598	905.601624	-3.758332
213.982590	908.870911	955.310059	907.533508	-2.879903
214.359283	904.561340	954.789978	902.109375	-4.881608
214.735931	907.087646	952.783752	902.257996	-10.569064
215.112579	912.214539	956.350281	905.898743	-14.309935
215.489197	902.406555	959.693909	906.938965	7.911711
215.865799	899.508789	964.895203	906.344543	10.454395
216.242355	891.632629	965.415283	899.137207	10.171195
216.618896	894.010315	957.464844	904.784180	16.978874
216.995407	896.239441	954.269836	898.542786	3.969204
217.371902	899.954529	948.919983	903.818298	7.890807
217.748367	901.886414	949.811707	897.725525	-8.682031
218.124802	895.942200	947.359680	895.199219	-1.444997
218.501236	895.645020	954.566956	895.645020	0.000000
218.877609	905.527344	964.226379	899.657410	-10.000052
219.253983	911.620117	975.371826	908.499329	-4.895224
219.630295	911.620117	978.789734	908.722351	-4.314103
220.006592	906.344543	971.136536	914.146423	12.041426
220.382889	901.291992	971.582336	907.904968	9.408086
220.759140	905.081482	967.198547	907.756348	4.306169
221.135391	903.372559	971.136536	900.103210	-4.824611
221.511581	909.242432	961.997314	903.521057	-10.845203
221.887772	907.236267	960.808411	910.208313	5.547745
222.263931	913.774902	963.409119	920.462097	13.472954
222.640060	912.065918	968.090149	924.474426	22.148466
223.016159	910.951416	971.210754	914.740723	6.288331
223.392212	906.790344	971.730957	906.047363	-1.144093
223.768265	902.778015	978.566833	901.069031	-2.254930
224.144302	906.567444	982.876404	900.846191	-7.497485
224.520294	910.579834	988.300476	898.914307	-15.009562
224.896286	907.459167	985.551270	900.325989	-9.134315
225.272217	904.487061	988.151855	903.669678	-0.976973
225.648148	901.143372	988.671936	897.874084	-3.735109
226.024048	908.350769	988.077637	899.583008	-10.997248
226.399902	910.059753	987.408875	898.765686	-14.601417
226.775772	905.527344	995.359314	903.446777	-2.316065
227.151581	902.852356	1007.024719	908.053528	4.992852
227.527374	894.902039	1014.380676	910.431335	12.997551
227.903137	896.165039	1030.504395	912.585999	12.223492
228.278870	898.988586	1044.919067	910.505554	7.892092
228.654572	896.016418	1060.299683	911.322937	9.317150
229.030273	893.415833	1062.454468	907.904968	8.571493
229.405930	895.793518	1063.569214	909.316711	8.060282
229.781555	903.892578	1068.398804	909.242432	3.252068
230.157181	913.997742	1072.931274	911.322937	-1.682971
230.532761	913.849121	1073.599976	900.846191	-8.139505
230.908325	915.409485	1064.312134	896.536621	-12.674633
231.283859	911.471497	1056.658813	900.697571	-7.420707
231.659332	911.694397	1052.052124	906.196045	-3.917385
232.034821	903.892578	1049.377319	907.682068	2.604733
232.410263	898.096985	1045.439331	907.533447	6.404447
232.785690	888.883484	1039.643677	907.533386	12.370575
233.161087	889.329285	1041.947144	908.276428	12.414762
233.536469	900.846191	1047.148193	906.716125	4.012204
233.911804	901.143372	1060.522827	900.697571	-0.279710
234.287140	901.886414	1064.535034	896.165222	-3.517516
234.662430	892.152771	1061.414429	900.920593	5.180040
235.037704	898.394226	1063.569214	907.161926	5.308128
235.412933	906.938965	1061.785889	913.774841	4.414603
235.788162	906.938965	1067.878540	906.864746	-0.046116
236.163345	908.796570	1060.745605	909.911133	0.733511
236.538513	901.069153	1064.312134	912.808899	7.191578
236.913635	895.867920	1073.377197	914.815125	10.673923
237.288742	892.524353	1080.138672	906.121765	7.247534
237.663834	895.570740	1092.250000	895.867920	0.151099
238.038879	900.251770	1087.866089	892.524231	-4.118843
238.413910	903.818298	1096.039429	898.245605	-2.899105
238.788910	905.155701	1097.971313	901.960754	-1.656996
239.163879	907.384766	1111.345825	903.298157	-2.003622
239.538834	905.898743	1119.147461	909.539612	1.707335
239.913757	906.047363	1138.763550	916.746887	4.597671
240.288651	909.539551	1160.014038	924.474426	5.962634
240.663528	906.121643	1188.323364	915.335266	3.264907
241.038361	900.400391	1210.094116	920.685059	6.549912
241.413177	897.279602	1237.734741	914.740723	5.128758
241.787979	901.514893	1268.644653	922.988464	5.849041
242.162735	907.904968	1314.638062	911.917297	0.986477
242.537476	909.019470	1344.582031	912.437500	0.784739
242.912170	906.938965	1363.380493	907.013367	0.016300
243.286865	903.521057	1361.745850	911.397217	1.718842
243.661514	903.372498	1346.811035	906.864746	0.787538
244.036148	910.134033	1335.591309	912.883240	0.646177
244.410751	911.991638	1318.427368	917.341370	1.316255
244.785339	908.127930	1327.863892	925.143127	4.053786
245.159882	905.675964	1339.157959	924.994568	4.456610
245.534378	906.641846	1374.600220	917.192688	2.254654
245.908890	908.870850	1432.853638	920.164856	2.155416
246.283356	909.242371	1516.518555	919.050293	1.615068
246.657791	908.053528	1598.623047	928.263855	2.926617
247.032196	910.282654	1666.907227	927.818054	2.317583
247.406586	909.019531	1703.761353	923.359863	1.804401
247.780960	909.985413	1715.204102	916.672607	0.830482
248.155289	910.505554	1695.513794	912.363098	0.236627
248.529602	906.195984	1655.018677	919.421875	1.766225
248.903870	905.898743	1599.588989	924.994629	2.752797
249.278122	910.728455	1532.493652	924.028625	2.139099
249.652344	910.282532	1478.624023	916.598389	1.111279
250.026550	914.517883	1438.946411	913.626282	-0.170014
250.400711	908.945129	1419.033325	915.483826	1.281876
250.774857	910.431213	1411.454468	916.672607	1.245729
251.148987	905.304382	1426.017944	914.072083	1.683786
251.523071	902.257996	1457.224976	911.099915	1.593233
251.897125	899.805969	1495.490845	912.957520	2.207803
252.271164	896.313782	1516.741577	915.260986	3.053894
252.645187	899.360168	1517.484497	917.341492	2.909014
253.019165	906.790466	1494.822266	917.267090	1.781642
253.393112	907.904968	1476.469360	922.765564	2.613705
253.767044	903.372498	1455.664551	921.725281	3.323021
254.140930	894.976257	1439.243774	917.267090	4.095565
254.514801	902.852356	1423.268555	914.592224	2.255862
254.888657	908.499329	1417.844604	914.815125	1.239983
255.262466	909.539551	1426.835083	918.530273	1.738024
255.636276	903.149597	1434.934204	917.044189	2.612823
256.010010	904.858582	1458.636719	923.137024	3.300680
256.383759	909.539551	1485.608765	922.988464	2.334600
256.757446	915.335205	1529.595825	922.839844	1.221735
257.131134	907.830750	1568.827759	917.638672	1.483807
257.504791	910.356934	1631.464844	921.948059	1.607405
257.878418	908.053528	1711.117554	924.845947	2.091044
258.252014	911.248596	1809.196899	931.830383	2.292090
258.625580	909.019531	1926.372437	932.499207	2.307919
258.999115	901.886414	2067.621826	932.350586	2.613301
259.372650	904.932800	2236.586182	933.019287	2.109144
259.746124	900.549011	2375.755127	931.161682	2.075145
260.119598	897.799805	2457.636719	935.768494	2.434145
260.493042	900.697571	2459.940186	937.105896	2.335001
260.866425	902.332275	2388.312256	940.598145	2.575127
261.239838	908.870911	2272.251709	941.266846	2.376147
261.613159	900.697571	2137.837891	944.759094	3.561562
261.986511	903.966980	2037.157715	943.941711	3.527626
262.359802	900.697571	1970.285156	938.666260	3.549844
262.733063	897.502625	1942.718872	928.412537	2.957274
263.106293	896.239441	1929.864624	924.548828	2.738844
263.479523	907.682129	1914.038086	923.137024	1.535728
263.852692	912.957581	1896.279663	932.053284	1.941958
264.225861	911.917297	1879.487305	933.836609	2.265398
264.598969	900.697571	1885.728882	934.653992	3.447243
264.972076	894.010315	1907.573853	931.830383	3.731396
265.345154	901.143372	1958.173828	929.006897	2.636019
265.718201	903.149597	2023.040161	931.236023	2.507962
266.091217	913.031921	2088.054932	931.161682	1.542928
266.464203	906.270325	2145.565430	936.734375	2.458175
266.837158	908.276428	2190.146973	930.790100	1.756314
267.210114	903.818298	2228.784424	928.040955	1.828172
267.583038	908.647949	2253.155762	931.904724	1.729761
267.955902	911.397156	2267.644775	938.517761	1.999680
268.328766	912.511719	2270.022461	937.254578	1.822664
268.701569	906.716125	2277.526855	940.523926	2.466263
269.074371	906.939026	2296.399658	937.403137	2.192513
269.447144	910.505554	2342.541992	936.214355	1.795262
269.819885	911.620117	2416.101563	938.294739	1.773011
270.192596	911.843018	2523.320313	941.787048	1.858173
270.565277	907.384766	2670.588135	944.164734	2.085974
270.937927	908.202148	2812.358154	941.118225	1.728644
271.310577	904.041199	2922.845947	939.557922	1.759295
271.683136	904.784180	2979.093018	948.251282	2.095498
272.055725	901.589172	2992.021729	951.000488	2.363688
272.428284	901.663513	2964.827148	953.824036	2.528182
272.800812	901.737793	2915.787354	953.006653	2.545561
273.173279	901.886414	2842.376221	948.399902	2.396997
273.545776	900.994812	2804.555908	950.554688	2.603535
273.918152	901.514893	2764.803955	948.845764	2.540179
274.290558	904.487000	2763.021240	955.161438	2.726581
274.662964	905.452942	2738.798096	956.424622	2.780255
275.035278	902.555176	2755.516357	951.297668	2.630519
275.407593	907.236267	2785.460205	946.245178	2.076904
275.779907	906.195984	2853.150391	945.576416	2.022669
276.152161	907.384766	2912.963867	948.251282	2.037642
276.524384	897.056702	2960.666260	945.650696	2.354805
276.896606	899.285828	2994.325439	944.090332	2.138599
277.268799	900.474670	2998.635010	950.777649	2.397480
277.640930	901.217773	3007.253906	950.406067	2.335586
278.013031	904.561340	3017.210693	953.749756	2.328281
278.385162	903.818298	3042.399170	951.743469	2.240980
278.757233	901.069092	3051.984375	955.384460	2.525221
279.129272	899.954590	3071.748779	959.694031	2.750695
279.501282	899.731628	3105.705078	962.368958	2.839442
279.873230	905.378662	3175.475342	969.947754	2.844332
280.245178	911.025696	3283.883057	967.718689	2.389229
280.617126	917.341370	3417.182373	971.582336	2.169777
280.988983	918.233093	3555.756836	969.873352	1.957907
281.360870	914.369324	3686.306641	976.337708	2.235562
281.732697	912.660339	3783.643311	975.000305	2.171381
282.104492	911.917236	3835.803711	973.885742	2.119388
282.476288	914.146423	3831.196533	972.771179	2.009727
282.848053	912.214539	3815.964844	968.907410	1.952402
283.219757	911.620117	3812.769775	978.715332	2.312711
283.591461	909.985413	3805.191406	977.972351	2.348259
283.963135	907.830750	3818.119873	980.870178	2.509697
284.334747	907.087646	3878.601807	968.090088	2.052908
284.706360	900.771912	3982.997314	964.672302	2.073190
285.077942	897.651123	4096.309082	964.152161	2.079029
285.449524	901.737793	4188.444336	972.548279	2.154451
285.821014	900.177429	4207.986328	980.647278	2.432724
286.192535	903.075256	4252.790527	989.192078	2.570870
286.563995	896.536621	4252.790527	988.969238	2.754041
286.935425	898.691406	4246.771973	986.368652	2.618732
287.306824	905.007080	4154.339355	990.678223	2.636577
287.678223	912.957520	4069.114258	992.981628	2.535492
288.049561	915.781006	4006.625244	990.901123	2.430408
288.420898	910.654114	3983.368408	982.802063	2.348020
288.792145	913.626282	4018.959717	977.080811	2.043405
289.163452	912.660339	4134.500488	982.876465	2.179380
289.534668	912.808899	4292.839355	986.888733	2.191691
289.905914	908.870911	4434.980957	993.650330	2.404333
290.277039	914.220703	4534.249512	990.306702	2.101806
290.648193	910.208313	4581.431641	994.987793	2.309298
291.019318	903.743958	4572.960938	999.445862	2.608238
291.390381	901.886414	4503.784668	1003.383972	2.817891
291.761475	905.007141	4411.426758	1002.195129	2.771716
292.132507	910.654236	4352.875977	995.507813	2.465082
292.503510	901.143494	4340.616211	993.501648	2.685242
292.874481	905.378662	4400.652832	991.644043	2.468058
293.245422	907.236267	4506.088379	997.588379	2.510581
293.616364	912.734680	4680.476563	994.690613	2.175200
293.987213	910.208313	4840.153809	994.839172	2.153487
294.358093	906.567566	4956.140137	992.015625	2.110051
294.728943	908.202148	5062.838867	1004.127014	2.308863
295.099731	910.356873	5194.503418	1014.455078	2.429847
295.470490	910.133972	5331.814941	1024.560181	2.587844
295.841248	905.007141	5464.296875	1021.216614	2.548851
296.211975	903.298157	5576.196777	1015.272400	2.396248
296.582642	904.264099	5709.569824	1014.380798	2.291565
296.953308	904.412659	5781.643066	1017.129944	2.311092
297.323883	907.979187	5770.943848	1019.433350	2.291897
297.694519	902.183594	5639.873535	1013.860657	2.357205
298.065063	910.282532	5491.268066	1012.374573	2.228604
298.435608	903.743958	5310.118652	1005.613098	2.311858
298.806122	896.239319	5126.516113	1003.904114	2.545100
299.176575	900.325989	4927.979004	1003.829773	2.569829
299.547028	905.007141	4815.781738	1004.944336	2.555432
299.917450	913.106201	4759.460938	1003.458252	2.349031
300.287872	908.499329	4750.247559	992.981628	2.199059
300.658234	905.081543	4722.829590	994.764832	2.349115
301.028564	907.384827	4699.052246	989.712219	2.171271
301.398865	906.047424	4647.337891	993.799011	2.345490
301.769135	906.196045	4590.199219	983.322266	2.093544
302.139374	905.452942	4539.079590	994.690613	2.455884
302.509583	895.719299	4489.964844	990.381042	2.633703
302.879791	897.428223	4420.417480	997.142578	2.830390
303.249939	901.366272	4371.897949	980.944519	2.292970
303.620087	911.471497	4335.117676	982.207703	2.066107
303.990173	910.356934	4337.272949	983.396484	2.131349
304.360260	910.579834	4326.201660	998.628601	2.577825
304.730286	905.229980	4312.530273	1000.337585	2.791289
305.100281	898.914307	4302.053223	999.966003	2.969367
305.470276	893.118652	4330.659668	990.455261	2.831577
305.840179	894.456116	4362.906738	999.445862	3.026993
306.210144	899.657410	4403.848145	996.250793	2.756510
306.579987	904.338379	4423.314941	1006.281738	2.896960
306.949890	909.836914	4466.262207	1002.640930	2.609475
307.319702	908.573730	4555.722656	1008.436523	2.738106
307.689484	909.688232	4673.715332	1002.269348	2.459629
308.059265	916.152527	4802.630371	1005.612976	2.301839
308.429016	918.233093	4897.069336	1010.739929	2.324972
308.798737	920.313477	4971.595215	1016.684082	2.378768
309.168396	905.675842	5032.746582	1016.312561	2.680757
309.538055	902.406555	5069.823242	1010.071228	2.583487
309.907684	892.524231	5069.674805	1001.377747	2.605928
310.277313	897.131042	5084.312012	998.851379	2.429327
310.646851	901.143372	5071.829590	1003.532471	2.454970
311.016388	907.830566	5064.473145	1006.727539	2.379251
311.385895	905.007141	4996.263184	1000.263367	2.328288
311.755371	905.675842	4930.431641	998.777161	2.313216
312.124817	907.310547	4863.855957	995.359314	2.225395
312.494232	911.322815	4804.934082	997.216797	2.206023
312.863617	906.864746	4780.265625	993.427307	2.234795
313.232971	900.251770	4804.339844	1004.944153	2.681609
313.602295	899.360168	4883.323730	1003.458191	2.612926
313.971619	895.645020	4987.792969	1005.167175	2.676398
314.340820	897.874023	5022.641113	997.142517	2.406645
314.710083	899.360168	5028.213867	996.399475	2.350272
315.079285	907.607727	4951.162109	994.244629	2.142593
315.448486	911.620056	4873.218262	991.495422	2.016241
315.817596	909.390930	4723.201172	993.798828	2.213217
316.186707	904.784241	4579.054199	992.387146	2.384226
316.555786	907.087585	4472.949219	991.421204	2.365028
316.924866	912.808899	4415.884766	987.185974	2.123193
317.293884	918.530273	4422.126465	985.105469	1.900196
317.662872	914.443665	4445.605957	979.235535	1.834860
318.031830	913.329102	4509.506348	981.984802	1.909130
318.400757	911.248535	4545.097656	979.458496	1.877072
318.769684	905.007141	4576.229980	992.461487	2.382159
319.138550	903.521057	4565.084961	1003.458252	2.729358
319.507416	901.366272	4539.524902	1005.835938	2.871498
319.876190	906.195984	4483.797852	996.622375	2.527570
320.244995	908.499329	4397.160645	980.201477	2.055291
320.613770	908.425110	4349.161133	978.938293	2.049363
320.982483	910.282654	4342.622559	978.269592	1.980775
321.351166	902.629395	4394.634277	982.133484	2.276746
321.719818	895.867920	4458.237793	984.585449	2.490407
322.088440	894.084656	4582.694824	992.832947	2.677114
322.457062	894.902039	4755.596680	999.000183	2.696358
322.825623	903.372559	4959.111816	1003.904114	2.478748
323.194183	904.264099	5104.968262	1004.052734	2.375522
323.562653	898.914307	5203.567871	1009.179504	2.561535
323.931183	899.211487	5218.577637	1011.185730	2.592377
324.299591	894.827637	5180.014160	1017.501465	2.862742
324.668060	905.081482	5083.271973	1015.495300	2.642623
