Jaz Data File
++++++++++++++++++++++++++++++++++++
Date: Fri Jun 04 13:51:15 2021
User: jaz
Dark Spectrum Present: Yes
Reference Spectrum Present: Yes
Processed Spectrum Present: Yes
Spectrometers: JAZA3586
Integration Time (usec): 475000 (JAZA3586)
Spectra Averaged: 10 (JAZA3586)
Boxcar Smoothing: 1 (JAZA3586)
Correct for Electrical Dark: No (JAZA3586)
Strobe/Lamp Enabled: Yes (JAZA3586)
Correct for Detector Non-linearity: No (JAZA3586)
Correct for Stray Light: No (JAZA3586)
Number of Pixels in Processed Spectrum: 2048
>>>>>Begin Processed Spectral Data<<<<<
W	D	R	S	P
191.335022	0.000000	0.000000	0.000000	0.000000
191.713211	273.656952	280.864258	281.012909	102.062508
192.091385	560.985596	563.065979	565.072205	196.435379
192.469528	843.187317	849.131531	848.611389	91.249619
192.847641	854.035583	856.413147	848.537109	-231.265076
193.225739	875.731934	879.001221	864.437805	-345.461517
193.603790	896.908142	893.341614	883.385071	379.166229
193.981842	915.112305	915.409485	904.932861	-3425.343994
194.359863	913.031738	918.158691	915.558167	49.277382
194.737854	934.430969	942.678650	928.858337	-67.566048
195.115829	926.926453	938.591980	935.545593	73.885567
195.493774	924.102966	937.254578	929.601379	41.807903
195.871704	908.796570	920.239197	927.223633	161.038742
196.249603	939.409363	938.963440	942.604309	-716.479614
196.627457	941.341125	930.641602	935.099792	58.332809
197.005310	934.802551	933.687988	930.715881	366.661194
197.383133	922.245422	918.901794	913.477722	262.221161
197.760910	936.734375	944.090393	942.084229	72.727577
198.138687	946.319519	947.434021	951.520691	466.681274
198.516449	936.660095	941.564026	950.034607	272.730438
198.894180	919.941956	925.068848	925.143066	101.447639
199.271866	914.889343	917.267090	911.917236	-124.996788
199.649536	913.328918	915.186707	915.038086	92.000130
200.027191	923.211243	920.239258	925.589050	-80.007393
200.404816	913.997742	916.301208	924.251465	445.143097
200.782410	928.041016	934.728271	931.384583	49.999088
201.159988	926.703552	948.548523	934.208069	34.353519
201.537537	935.025391	962.888977	944.684753	34.666618
201.915070	923.359863	955.681580	938.146179	45.747311
202.292557	916.003967	945.279236	937.997559	75.126862
202.670029	915.260925	945.130615	940.449524	84.328293
203.047485	915.335266	943.867432	937.997559	79.427170
203.424911	909.911133	948.919983	941.118225	80.000031
203.802292	913.774902	957.019043	938.517578	57.216251
204.179688	908.499329	964.003479	936.808655	51.003983
204.557037	916.598389	964.895203	934.653992	37.384666
204.934357	917.118469	965.786804	925.514709	17.251957
205.311661	917.415588	962.145996	925.217529	17.442141
205.688934	910.356934	959.471008	912.214539	3.782225
206.066177	888.511902	937.774658	903.521057	30.467550
206.443390	887.471680	931.756104	913.254700	58.221420
206.820587	879.372742	928.189514	916.301086	75.646835
207.197769	901.292053	952.932373	934.208069	63.740921
207.574921	909.316711	958.876648	931.384583	44.527641
207.952042	921.353699	953.601135	934.505310	40.783432
208.329147	918.381653	952.783875	933.539368	44.060280
208.706223	1058.368042	1113.203247	1081.624634	42.411789
209.083267	1064.757935	1125.983398	1090.541016	42.111694
209.460297	1063.866333	1125.834839	1093.736206	48.201698
209.837280	922.542480	963.557800	941.564148	46.376984
210.214264	911.322937	956.498962	930.864441	43.256359
210.591217	905.155762	942.009827	920.313477	41.129017
210.968124	912.883240	959.916809	929.749939	35.860981
211.345016	920.685059	967.198486	933.242188	26.996782
211.721893	916.152527	967.347107	933.539368	33.962269
212.098724	905.750183	955.235657	918.901672	26.576464
212.475555	905.155762	958.133606	930.790222	48.387135
212.852356	910.431213	967.347107	942.158508	55.744175
213.229126	914.220703	970.839355	954.121277	70.472488
213.605865	911.322937	961.923035	936.214294	49.192310
213.982590	908.796631	954.344177	925.589050	36.867889
214.359283	898.542908	950.926270	913.774841	29.077808
214.735931	893.118713	953.972656	912.957520	32.600693
215.112579	899.583008	968.313049	917.044128	25.405369
215.489197	904.338440	967.421387	928.189514	37.809067
215.865799	906.567444	965.712585	935.471191	48.869183
216.242355	899.805969	963.929199	932.053223	50.289501
216.618896	903.743958	975.743347	941.564026	52.528316
216.995407	900.325989	979.309814	935.545593	44.590908
217.371902	894.976257	968.535950	925.886230	42.020260
217.748367	890.815247	964.226379	916.895569	35.526386
218.124802	889.403564	957.241882	916.003906	39.211380
218.501236	897.725403	958.653625	916.226807	30.365902
218.877609	894.530457	955.607239	906.641785	19.829676
219.253983	894.901917	958.282227	914.963684	31.652996
219.630295	896.016418	955.533020	926.629211	51.435722
220.006592	895.273438	958.579407	927.223694	50.469578
220.382889	903.075195	971.136536	924.771667	31.877821
220.759140	901.440613	979.384216	925.514648	30.886480
221.135391	909.613953	976.560608	925.514648	23.751293
221.511581	898.319885	968.015808	919.570496	30.490463
221.887772	894.456116	972.102539	918.604553	31.100515
222.263931	898.022705	991.941345	932.945007	37.183567
222.640060	913.403320	1015.123779	943.050049	29.145296
223.016159	913.551941	1023.594421	941.043945	24.983084
223.392212	906.641785	1018.393127	924.920227	16.356352
223.768265	897.725403	1009.625305	919.347595	19.322798
224.144302	890.815247	1009.030945	921.428040	25.895708
224.520294	883.905212	1010.071106	920.907959	29.328644
224.896286	895.793640	1026.417847	927.520813	24.288893
225.272217	907.607727	1040.163696	932.499207	18.778090
225.648148	916.672607	1062.008789	953.898254	25.613476
226.024048	899.434387	1060.745605	950.554688	31.690481
226.399902	896.610901	1074.788940	949.142883	29.482861
226.775772	888.957703	1076.200684	935.545593	24.880981
227.151581	893.713135	1108.968262	946.765320	24.646189
227.527374	893.490234	1129.698608	946.616699	22.491356
227.903137	899.434387	1176.360718	956.498962	20.606411
228.278870	907.904968	1230.750366	965.341003	17.790569
228.654572	906.047363	1315.826782	973.291321	16.409794
229.030273	903.298157	1394.662109	980.275818	15.666119
229.405930	894.456238	1473.942993	973.662842	13.668406
229.781555	902.034973	1526.400757	978.269531	12.209919
230.157181	900.920471	1553.298462	973.439941	11.116174
230.532761	899.434387	1529.447266	967.644348	10.826756
230.908325	890.592468	1478.252808	960.511230	11.897819
231.283859	893.787415	1421.782715	975.743347	15.522095
231.659332	895.124939	1381.510620	971.210876	15.643128
232.034821	891.632629	1353.498413	965.935364	16.087517
232.410263	884.573914	1337.300415	942.901550	12.883636
232.785690	880.858826	1309.808350	942.009949	14.256019
233.161087	890.369568	1290.415283	948.697083	14.580213
233.536469	896.090820	1271.245239	948.697083	14.022562
233.911804	903.298157	1275.109009	961.402893	15.627499
234.287140	897.353943	1282.762085	957.316223	15.558125
234.662430	898.096985	1309.956909	969.278992	17.283062
235.037704	896.536621	1321.473877	960.511230	15.055072
235.412933	892.524353	1329.572876	968.981750	17.494030
235.788162	885.465576	1316.421387	963.186218	18.034481
236.163345	890.295227	1326.303589	970.913757	18.490133
236.538513	903.595398	1339.678101	975.891907	16.578623
236.913635	907.013367	1363.009155	977.898132	15.545049
237.288742	908.796570	1377.498169	981.910461	15.599241
237.663834	906.641785	1376.012085	975.148926	14.595542
238.038879	910.877014	1367.615845	982.653503	15.714996
238.413910	905.527283	1354.910034	988.374817	18.435850
238.788910	899.583008	1372.965698	999.743103	21.158377
239.163879	899.285828	1388.049194	994.839050	19.549997
239.538834	898.468506	1407.590820	983.842346	16.768827
239.913757	900.400391	1446.525391	988.151855	16.068018
240.288651	902.034973	1487.391968	998.479980	16.476271
240.663528	902.852356	1542.673218	1016.684021	17.791178
241.038361	895.942200	1590.821289	1021.959534	18.135145
241.413177	895.645020	1686.671875	1037.414551	17.922215
241.787979	885.985657	1796.937012	1051.383423	18.156597
242.162735	884.573914	1931.350586	1075.309082	18.221191
242.537476	871.793762	2042.433228	1086.380005	18.330687
242.912170	891.781250	2170.828369	1116.398315	17.561281
243.286865	898.319885	2226.332520	1120.039185	16.695570
243.661514	905.973145	2232.425293	1118.998901	16.059814
244.036148	902.109375	2152.178223	1103.024048	16.072289
244.410751	909.762512	2054.470215	1079.024170	14.786451
244.785339	909.242371	1965.232788	1070.405151	15.261765
245.159882	903.446777	1925.332031	1073.674316	16.658186
245.534378	900.400391	1950.743530	1105.624512	19.538769
245.908890	900.177490	2049.566162	1128.881226	19.897860
246.283356	894.753418	2210.208740	1145.302124	19.046539
246.657791	884.276672	2434.528564	1171.531006	18.529526
247.032196	891.632629	2687.826660	1215.443848	18.027630
247.406586	887.620300	2915.341797	1238.032104	17.281063
247.780960	896.610901	3066.473389	1237.660522	15.717568
248.155289	889.849365	3106.968018	1227.109497	15.211641
248.529602	896.908203	3012.306641	1210.019897	14.801547
248.903870	899.360168	2826.178467	1196.199463	15.405671
249.278122	898.319885	2611.666260	1169.673462	15.837636
249.652344	896.982422	2435.568848	1144.187500	16.067026
250.026550	903.520996	2293.353516	1130.664551	16.343231
250.400711	923.880066	2194.456543	1135.865723	16.684212
250.774857	926.332031	2123.868896	1138.169067	17.689396
251.148987	907.384827	2093.330566	1132.522095	18.983774
251.523071	884.276672	2084.042725	1117.884399	19.471106
251.897125	899.062927	2141.627197	1146.713867	19.930635
252.271164	899.954590	2196.462891	1156.670410	19.800554
252.645187	900.326111	2255.681885	1156.001709	18.864096
253.019165	874.988831	2255.607666	1134.899780	18.825684
253.393112	898.542786	2255.904785	1142.998657	18.009628
253.767044	892.227051	2177.812744	1137.500366	19.078722
254.140930	908.796570	2096.748291	1138.763550	19.358278
254.514801	903.521057	2008.551147	1123.605835	19.916634
254.888657	912.065918	1965.307007	1120.039185	19.746027
255.262466	905.081360	1944.428101	1105.401611	19.273670
255.636276	912.957520	1958.916992	1117.810181	19.585144
256.010010	919.347473	1992.353149	1135.568481	20.150967
256.383759	927.595154	2030.544922	1147.308350	19.920509
256.757446	919.421875	2072.971680	1147.828491	19.800325
257.131134	919.496277	2134.197021	1162.168823	19.977970
257.504791	912.957520	2227.149658	1188.472046	20.964554
257.878418	903.818359	2327.681396	1213.883667	21.776344
258.252014	902.257996	2479.704834	1248.880249	21.973625
258.625580	908.350769	2656.619873	1296.359741	22.193893
258.999115	900.028809	2886.735107	1350.080444	22.653154
259.372650	894.381836	3172.354492	1403.727051	22.359585
259.746124	884.350891	3488.438477	1450.389160	21.736528
260.119598	890.369446	3794.565674	1476.320801	20.176025
260.493042	894.976257	3980.991455	1483.082397	19.057137
260.866425	897.576843	4016.284912	1464.209473	18.168825
261.239838	904.858582	3859.952148	1433.522461	17.889921
261.613159	910.208313	3581.465576	1383.665161	17.724119
261.986511	902.778015	3278.607422	1341.387085	18.461304
262.359802	889.700745	3034.151367	1305.870361	19.406816
262.733063	881.230225	2881.459229	1289.969604	20.434629
263.106293	886.580078	2788.878174	1278.304077	20.592146
263.479523	907.013245	2748.383545	1285.734375	20.567352
263.852692	910.951355	2708.333984	1284.694214	20.793730
264.225861	912.363037	2661.374756	1276.966553	20.846260
264.598969	907.310547	2632.619629	1280.384644	21.623610
264.972076	904.932800	2637.746582	1287.591797	22.083101
265.345154	911.917236	2690.427490	1313.151978	22.560160
265.718201	905.527283	2737.832764	1312.780396	22.226269
266.091217	926.406250	2836.506592	1355.950317	22.488037
266.464203	931.236023	2934.437500	1387.751953	22.789318
266.837158	926.703430	3036.009033	1407.070679	22.773714
267.210114	899.583008	3100.281006	1391.541382	22.354652
267.583038	894.827637	3147.166016	1378.166870	21.459442
267.955902	898.022705	3184.391846	1382.550781	21.192032
268.328766	907.607727	3183.351563	1386.637329	21.049364
268.701569	896.462219	3169.976807	1392.730103	21.828224
269.074371	889.997986	3168.342529	1389.015137	21.902620
269.447144	888.660461	3211.214844	1406.773438	22.307894
269.819885	890.889648	3273.257813	1430.550293	22.652277
270.192596	899.285828	3384.637451	1489.175171	23.734644
270.565277	927.446594	3532.871826	1551.738159	23.961216
270.937927	927.000732	3728.064697	1601.892212	24.094112
271.310577	926.183411	3937.598389	1636.442993	23.585575
271.683136	892.970032	4148.618652	1641.941406	23.005289
272.055725	895.422058	4301.979004	1645.359375	22.014524
272.428284	896.685242	4338.461426	1628.864258	21.273291
272.800812	909.316711	4269.211426	1620.468140	21.165884
273.173279	914.443542	4137.250000	1602.858276	21.360723
273.545776	909.762451	4032.111328	1584.654175	21.614872
273.918152	915.186584	3932.471436	1570.462280	21.717396
274.290558	908.796570	3850.738525	1548.765991	21.753300
274.662964	911.917297	3785.574951	1556.493530	22.430515
275.035278	895.793640	3735.792236	1553.372681	23.154203
275.407593	900.028809	3746.268799	1580.567383	23.910091
275.779907	913.254700	3789.290283	1601.669434	23.936237
276.152161	907.682068	3868.422607	1616.381348	23.936556
276.524384	910.654114	3959.220459	1633.842407	23.722242
276.896606	893.787415	4020.668701	1638.375000	23.812468
277.268799	899.657410	4071.789063	1646.250977	23.536022
277.640930	894.456116	4081.671143	1643.056030	23.487587
278.013031	900.846191	4089.101563	1646.622681	23.391367
278.385162	901.960693	4068.296631	1652.344116	23.698793
278.757233	903.372375	4055.293701	1664.529663	24.148993
279.129272	903.446777	4067.628174	1669.656372	24.215097
279.501282	909.019531	4097.572266	1678.572754	24.134874
279.873230	908.276367	4157.385742	1690.758423	24.082970
280.245178	907.236145	4250.858887	1730.361694	24.617775
280.617126	901.291992	4405.705566	1787.500488	25.288353
280.988983	889.552185	4571.549316	1827.475464	25.473221
281.360870	902.629395	4756.562988	1876.663696	25.273769
281.732697	893.713074	4911.038574	1902.595337	25.113281
282.104492	902.332214	5047.012695	1919.462280	24.540613
282.476288	875.731873	5143.160156	1912.329224	24.290916
282.848053	887.323059	5197.847168	1915.747070	23.858448
283.219757	888.586182	5222.069824	1926.223755	23.944653
283.591461	910.728333	5151.110352	1933.802734	24.126940
283.963135	909.242371	5074.429688	1925.257813	24.393030
284.334747	918.678772	5050.132813	1942.421753	24.779242
284.706360	911.545715	5142.045410	1972.959961	25.089575
285.077942	920.982239	5291.171387	2021.999878	25.193821
285.449524	917.787292	5434.129883	2053.727295	25.151766
285.821014	912.140320	5514.525391	2042.358887	24.557234
286.192535	903.000977	5621.298340	2056.996338	24.457876
286.563995	894.010254	5703.031250	2059.448486	24.234417
286.935425	893.415833	5732.455078	2065.095703	24.213070
287.306824	887.620300	5674.424316	2026.012329	23.781881
287.678223	885.837097	5543.429199	1990.198364	23.710993
288.049561	903.595398	5421.795410	1984.848633	23.931059
288.420898	907.459167	5308.854980	1964.043579	24.005667
288.792145	914.443542	5266.576660	1985.145630	24.601778
289.163452	904.412781	5303.579590	2008.179688	25.090361
289.534668	898.988586	5425.956543	2070.816650	25.885498
289.905914	893.415955	5575.453613	2102.766846	25.829584
290.277039	901.960693	5761.953125	2154.258789	25.767492
290.648193	926.109131	5925.196777	2187.695068	25.236322
291.019318	924.994568	6055.894531	2191.484375	24.683578
291.390381	908.796570	6076.773438	2139.918213	23.822119
291.761475	884.573914	5994.966309	2086.197510	23.513330
292.132507	882.864929	5879.796875	2066.210205	23.681435
292.503510	883.459290	5781.791504	2073.045898	24.285545
292.874481	917.564270	5762.175781	2130.110352	25.028761
293.245422	918.976074	5800.367188	2171.571289	25.660620
293.616364	924.102966	5927.128418	2214.295166	25.788239
293.987213	898.171326	6074.470215	2240.078369	25.924063
294.358093	900.400391	6273.304688	2275.149414	25.586702
294.728943	889.998047	6467.160156	2317.576172	25.596855
295.099731	884.276672	6694.154785	2332.436768	24.925827
295.470490	889.626465	6846.476074	2378.281494	24.990643
295.841248	902.852356	6962.685059	2424.869385	25.116488
296.211975	901.143372	7048.430176	2476.732666	25.630648
296.582642	905.230164	7212.490723	2521.091553	25.619066
296.953308	899.137207	7351.808594	2547.617676	25.547256
297.323883	896.165100	7476.414063	2549.400879	25.124214
297.694519	891.558411	7485.033203	2506.676758	24.495710
298.065063	903.892578	7448.550781	2456.225342	23.719080
298.435608	909.390930	7233.667480	2399.086426	23.555193
298.806122	904.858582	6925.756348	2327.830078	23.633875
299.176575	903.372498	6596.224609	2264.969727	23.917664
299.547028	907.459167	6351.619629	2211.397461	23.951134
299.917450	907.830750	6208.289551	2187.843750	24.149096
300.287872	891.855530	6115.187988	2184.054443	24.738976
300.658234	884.796875	6074.396484	2190.815918	25.166084
301.028564	884.128113	6029.071777	2191.930420	25.419174
301.398865	883.607910	5962.125000	2173.206055	25.393204
301.769135	889.329285	5898.521484	2148.537598	25.137949
302.139374	892.821472	5868.354004	2131.745361	24.900326
302.509583	895.570618	5820.726563	2104.401611	24.544016
302.879791	899.731689	5747.167480	2084.934326	24.450096
303.249939	891.929871	5647.006348	2050.606445	24.367147
303.620087	896.165100	5568.022949	2029.578735	24.260447
303.990173	883.682190	5502.488281	2017.318848	24.543934
304.360260	894.753357	5449.658691	2033.145142	24.992657
304.730286	895.347717	5433.460449	2053.801514	25.527216
305.100281	900.325989	5423.949707	2061.825928	25.676319
305.470276	894.158936	5418.154297	2061.157471	25.795752
305.840179	890.815369	5428.333984	2060.265625	25.772902
306.210144	891.855469	5432.791504	2064.723877	25.828781
306.579987	900.548889	5464.296875	2084.414063	25.940636
306.949890	904.264160	5499.218750	2100.463623	26.032890
307.319702	909.093811	5587.193359	2135.311523	26.211878
307.689484	902.778015	5690.102051	2156.190674	26.181904
308.059265	904.709900	5809.655762	2202.778320	26.464479
308.429016	895.719299	5940.725098	2229.601563	26.439659
308.798737	898.022644	6076.030762	2268.387695	26.465097
309.168396	894.233215	6193.057129	2286.294678	26.271143
309.538055	903.298157	6266.246094	2291.867432	25.891905
309.907684	896.165222	6265.131348	2289.712646	25.955599
310.277313	893.193054	6285.490234	2281.241943	25.741325
310.646851	902.703796	6296.264160	2283.470947	25.600288
311.016388	918.233093	6312.908203	2287.409180	25.380138
311.385895	940.300964	6268.994629	2292.907471	25.383451
311.755371	922.616882	6215.125488	2272.177002	25.499439
312.124817	913.923523	6166.308594	2240.301514	25.252869
312.494232	897.874084	6097.801270	2214.741211	25.324724
312.863617	901.960693	6005.071777	2204.487549	25.524172
313.232971	900.177490	5965.988281	2212.289063	25.901316
313.602295	894.158997	5958.707031	2213.329346	26.047152
313.971619	888.660583	6020.378418	2246.616943	26.462023
314.340820	885.242615	6042.000000	2251.372559	26.492033
314.710083	897.576843	6110.135254	2280.870850	26.537716
315.079285	909.465271	6124.326660	2265.118408	25.995956
315.448486	917.935791	6133.837891	2258.802734	25.707287
315.817596	912.808899	6015.028809	2198.320313	25.195141
316.186707	904.338379	5845.395020	2139.918213	25.006390
316.555786	905.378662	5650.275879	2093.924805	25.048933
316.924866	901.589172	5491.490723	2074.754639	25.559711
317.293884	901.217773	5414.513672	2078.767334	26.090679
317.662872	901.886475	5388.729980	2077.726807	26.206402
318.031830	898.914368	5413.102051	2091.398682	26.416368
318.400757	912.660339	5457.312012	2114.878174	26.453463
318.769684	904.264099	5488.222168	2130.259033	26.745335
319.138550	895.199158	5511.181152	2119.633789	26.525982
319.507416	888.957764	5511.032715	2110.866211	26.436359
319.876190	888.289063	5506.351563	2099.126221	26.219593
320.244995	920.090576	5471.429688	2103.435547	25.999931
320.613770	924.251526	5391.554199	2087.014648	26.028305
320.982483	924.845947	5322.155762	2074.160400	26.136765
321.351166	897.948425	5272.595215	2070.296631	26.798691
321.719818	888.289001	5276.681641	2091.101563	27.408955
