Jaz Data File
++++++++++++++++++++++++++++++++++++
Date: Fri Jun 04 13:46:11 2021
User: jaz
Dark Spectrum Present: Yes
Reference Spectrum Present: Yes
Processed Spectrum Present: Yes
Spectrometers: JAZA3586
Integration Time (usec): 386000 (JAZA3586)
Spectra Averaged: 10 (JAZA3586)
Boxcar Smoothing: 1 (JAZA3586)
Correct for Electrical Dark: No (JAZA3586)
Strobe/Lamp Enabled: Yes (JAZA3586)
Correct for Detector Non-linearity: No (JAZA3586)
Correct for Stray Light: No (JAZA3586)
Number of Pixels in Processed Spectrum: 2048
>>>>>Begin Processed Spectral Data<<<<<
W	D	R	S	P
191.335022	0.000000	0.000000	0.000000	0.000000
191.713211	286.065460	285.248138	279.303925	827.279541
192.091385	572.502502	577.257874	565.815247	-140.625320
192.469528	854.406982	861.837219	852.623718	-24.000099
192.847641	859.682556	865.923828	864.735046	80.952896
193.225739	885.911377	882.047607	882.864929	78.846519
193.603790	921.205139	908.276550	905.750183	119.540932
193.981842	931.979004	931.904785	924.251526	10411.759766
194.359863	932.573425	939.037842	933.613708	16.092453
194.737854	946.170898	946.913879	943.273010	-390.035309
195.115829	950.108887	942.530029	942.529968	100.000809
195.493774	946.170837	931.384583	931.533203	98.994873
195.871704	932.499207	924.103027	925.366028	84.957436
196.249603	954.121277	933.465088	935.471191	90.288124
196.627457	952.337952	942.604309	936.437195	163.358749
197.005310	948.399902	940.300964	928.635437	244.037735
197.383133	928.486816	932.424988	922.616882	-149.052277
197.760910	946.839539	940.375305	941.564026	81.610802
198.138687	946.839600	944.536194	944.833435	87.095581
198.516449	949.663086	944.164612	935.842773	251.348145
198.894180	927.966614	930.715820	916.524109	-416.211182
199.271866	925.291748	933.687988	914.740723	-125.663689
199.649536	922.765442	935.174011	915.037903	-62.275826
200.027191	932.870667	943.793030	922.765442	-92.518661
200.404816	924.325867	940.300842	923.582825	-4.651287
200.782410	923.880066	954.046875	932.796387	29.556725
201.159988	922.616882	964.077820	931.533203	21.505352
201.537537	931.756165	977.377991	939.706543	17.426699
201.915070	928.561218	968.610352	930.567322	5.009106
202.292557	920.685059	963.780579	931.087402	24.137877
202.670029	919.719177	959.396729	933.019287	33.520493
203.047485	921.502441	963.483398	934.951172	32.035313
203.424911	920.016357	963.929199	935.025574	34.179562
203.802292	913.997803	969.353333	928.189636	25.637608
204.179688	909.465332	967.867249	930.938782	36.768398
204.557037	912.363098	964.597961	931.384583	36.415306
204.934357	925.737610	956.350342	935.694153	32.524189
205.311661	936.288574	955.161438	940.449524	22.047262
205.688934	933.242188	959.396729	944.684753	43.749825
206.066177	919.570496	957.019043	938.889160	51.587219
206.443390	908.796631	960.436951	940.152283	60.719322
206.820587	908.870911	949.365906	928.486816	48.440323
207.197769	923.508545	966.678406	945.056335	49.913967
207.574921	926.332031	963.706299	933.465088	19.085476
207.952042	931.533203	973.514221	942.232727	25.486576
208.329147	931.236023	965.489563	929.527039	-4.989220
208.706223	1056.881958	1091.878540	1064.683716	22.292913
209.083267	1059.556763	1097.971313	1071.073730	29.980743
209.460297	1049.600220	1098.119995	1069.513306	41.041176
209.837280	920.759277	970.393555	939.260742	37.275581
210.214264	906.344543	961.179993	934.431091	51.219692
210.591217	898.617126	952.189392	929.378418	57.420181
210.968124	907.384827	968.387390	949.663086	69.305710
211.345016	922.245422	974.183044	957.539124	67.954018
211.721893	922.839844	977.526611	963.111816	73.641167
212.098724	917.638672	957.390625	948.474304	77.570107
212.475555	922.542664	960.214111	948.474304	68.836327
212.852356	933.390686	959.248230	942.232910	34.195915
213.229126	940.003723	970.170593	945.873718	19.458416
213.605865	923.880066	955.904480	927.818115	12.297022
213.982590	911.768738	956.053040	925.514648	31.040144
214.359283	899.805969	953.155273	909.168030	17.548609
214.735931	895.942200	960.511230	912.660339	25.891886
215.112579	900.400391	967.644287	921.502258	31.381090
215.489197	901.440613	968.610352	932.424805	46.128201
215.865799	909.168152	980.275879	937.254578	39.498417
216.242355	903.818298	971.359558	931.384583	40.813992
216.618896	918.307312	983.768066	941.415466	35.300777
216.995407	915.409424	969.873352	939.557922	44.338516
217.371902	914.889343	968.387390	931.830383	31.666651
217.748367	902.183594	955.978821	929.378418	50.552486
218.124802	902.852356	961.551514	925.143127	37.974602
218.501236	903.595398	957.539124	933.316406	55.096321
218.877609	908.499329	960.288391	924.177246	30.272642
219.253983	904.858582	960.065430	927.223633	40.511372
219.630295	903.669617	983.247864	927.892395	30.438944
220.006592	900.846191	991.644043	927.669495	29.541782
220.382889	907.533386	998.554199	928.263916	22.775593
220.759140	914.146301	988.746277	928.412537	19.123646
221.135391	910.877014	994.244690	934.802551	28.698818
221.511581	903.669739	994.913391	927.000793	25.570057
221.887772	899.508789	1005.092957	937.551758	36.030941
222.263931	911.248535	1011.780212	943.050110	31.633387
222.640060	924.994568	1017.947266	958.430847	35.971283
223.016159	926.852112	1022.999817	955.830261	30.139200
223.392212	914.220703	1022.033875	949.217285	32.460396
223.768265	899.434387	1027.532349	945.502136	35.962906
224.144302	892.672913	1027.532349	943.644531	37.796108
224.520294	893.787415	1023.668640	942.827148	37.757370
224.896286	909.242432	1033.179321	945.353516	29.136671
225.272217	919.124695	1041.947144	954.566956	28.856501
225.648148	927.595215	1066.392578	957.613464	21.627392
226.024048	909.019470	1065.798218	947.136780	24.312803
226.399902	903.743958	1077.612305	944.907715	23.675245
226.775772	894.307556	1072.708374	942.455750	26.988773
227.151581	910.431152	1098.194214	959.322449	26.038826
227.527374	903.669617	1127.469360	961.328613	25.763657
227.903137	910.579773	1175.394897	971.805359	23.120125
228.278870	908.127869	1238.329224	981.539063	22.232250
228.654572	914.369324	1308.396729	985.402771	18.027540
229.030273	909.688171	1396.891235	997.068176	17.935028
229.405930	901.589172	1473.497192	998.257080	16.902702
229.781555	906.121765	1537.992065	1005.092957	15.663213
230.157181	908.276550	1551.960938	997.513977	13.863538
230.532761	904.338379	1529.001343	997.959778	14.987506
230.908325	895.570618	1470.748047	987.780273	16.031515
231.283859	892.598572	1427.578125	994.616211	19.069447
231.659332	899.434387	1381.139038	987.111633	18.201452
232.034821	902.778015	1356.321899	989.935120	19.216908
232.410263	903.298157	1334.996948	976.040527	16.850260
232.785690	899.508728	1312.037476	968.684570	16.768732
233.161087	903.075195	1299.851685	971.359436	17.209749
233.536469	904.264099	1280.235840	977.377991	19.446646
233.911804	907.161865	1289.449463	987.929016	21.127327
234.287140	909.688171	1298.291382	983.099365	18.891041
234.662430	912.363098	1324.446045	990.306641	18.914528
235.037704	912.734619	1341.981445	998.257080	19.923841
235.412933	901.514954	1348.000000	1001.897949	22.482946
235.788162	893.044434	1346.365356	992.535828	21.947231
236.163345	900.549011	1348.371460	1000.783386	22.382616
236.538513	908.053650	1364.792358	1017.650085	23.995434
236.913635	908.722351	1371.108032	1023.445618	24.811163
237.288742	901.217773	1377.423828	1021.885315	25.339355
237.663834	898.171326	1372.668457	1010.739929	23.723768
238.038879	899.880188	1375.937866	1009.625305	23.052904
238.413910	898.394226	1389.683716	1004.721375	21.642464
238.788910	899.285828	1402.538208	1010.739929	22.146761
239.163879	903.595398	1417.770142	1021.216614	22.875729
239.538834	908.573669	1425.051880	1025.749023	22.687376
239.913757	914.294983	1469.336304	1032.064819	21.218210
240.288651	916.375488	1509.756836	1039.866699	20.811441
240.663528	908.127869	1562.214478	1053.389771	22.208359
241.038361	897.725403	1609.619751	1070.107910	24.214619
241.413177	897.948425	1708.219604	1091.135498	23.842274
241.787979	899.508789	1819.970825	1108.893799	22.747816
242.162735	903.818359	1958.619629	1130.813110	21.520144
242.537476	896.833801	2076.760986	1148.274292	21.309830
242.912170	919.050293	2205.007568	1183.419556	20.558168
243.286865	924.920227	2262.815186	1197.685669	20.387657
243.661514	924.697327	2259.768799	1194.416260	20.202583
244.036148	912.883118	2186.951904	1169.376221	20.131809
244.410751	914.740784	2082.259521	1159.196777	20.938078
244.785339	916.747009	1999.040405	1158.156494	22.305363
245.159882	913.626221	1949.777710	1161.128540	23.886692
245.534378	916.003906	1986.854858	1172.496948	23.952263
245.908890	913.477600	2072.005859	1202.292358	24.929451
246.283356	907.236145	2235.694580	1250.440552	25.834785
246.657791	888.214661	2451.172607	1299.480347	26.313292
247.032196	896.833801	2719.405029	1353.201294	25.039761
247.406586	900.994690	2953.755859	1378.687012	23.270720
247.780960	911.694336	3110.163086	1390.055298	21.758825
248.155289	900.325989	3134.237305	1376.012085	21.293865
248.529602	897.725403	3042.547852	1340.123901	20.626345
248.903870	901.143372	2861.620850	1303.344116	20.515448
249.278122	904.784180	2650.155273	1253.932739	20.004259
249.652344	897.725525	2462.020752	1235.356934	21.583612
250.026550	896.908203	2311.557861	1215.815430	22.543194
250.400711	916.226868	2211.323242	1221.685303	23.585768
250.774857	924.103027	2137.243408	1218.787598	24.291052
251.148987	927.298035	2105.442139	1224.286011	25.208120
251.523071	907.904968	2105.293701	1230.527466	26.943840
251.897125	926.629211	2160.351807	1266.415527	27.541548
252.271164	916.003906	2223.211914	1271.319458	27.181255
252.645187	912.808899	2283.694092	1269.164673	25.994574
253.019165	892.524231	2297.291748	1237.140259	24.531889
253.393112	920.610657	2290.455566	1250.143311	24.056200
253.767044	925.663269	2211.546143	1227.926880	23.506311
254.140930	928.858337	2130.110352	1226.515015	24.778872
254.514801	910.356934	2040.947266	1198.874390	25.519186
254.888657	911.099915	1997.777344	1196.942505	26.304272
255.262466	914.815125	1962.334961	1192.410034	26.500208
255.636276	923.285645	1973.926147	1213.883667	27.659130
256.010010	924.845947	1996.365601	1237.066040	29.138065
256.383759	921.948181	2038.272339	1251.480835	29.519440
256.757446	910.059753	2080.996338	1264.929565	30.306494
257.131134	906.493225	2157.973877	1285.734253	30.303387
257.504791	902.629456	2259.025391	1312.557617	30.221865
257.878418	903.521057	2365.352783	1335.739990	29.566940
258.252014	911.471436	2515.964600	1395.850952	30.188942
258.625580	915.558105	2692.581787	1485.162720	32.053856
258.999115	906.195984	2939.787109	1567.267212	32.507580
259.372650	900.103210	3214.038330	1641.272949	32.030704
259.746124	892.004150	3535.992188	1702.275391	30.645798
260.119598	899.211426	3831.642578	1764.615234	29.511478
260.493042	898.096924	4030.105225	1781.630493	28.209810
260.866425	903.669617	4079.516602	1760.900024	26.992184
261.239838	902.926575	3933.289063	1691.501465	26.022461
261.613159	903.669678	3662.158203	1612.443359	25.694277
261.986511	904.264160	3344.142578	1539.626587	26.040741
262.359802	912.734619	3084.677490	1494.450562	26.783207
262.733063	908.425049	2920.096924	1480.258789	28.425797
263.106293	913.626221	2820.679688	1470.971069	29.225445
263.479523	911.174255	2762.203857	1475.875000	30.507387
263.852692	923.508545	2723.714600	1466.735718	30.175833
264.225861	917.712952	2684.185791	1448.902954	30.070656
264.598969	921.205139	2666.427490	1452.395142	30.436808
264.972076	919.198975	2672.297607	1461.757446	30.948542
265.345154	926.777832	2719.108154	1491.627319	31.514809
265.718201	915.112305	2767.107422	1506.116211	31.911741
266.091217	927.075012	2861.174561	1555.378906	32.485603
266.464203	927.223633	2945.731201	1586.734741	32.673206
266.837158	928.858215	3059.340088	1618.016113	32.347511
267.210114	906.716125	3136.391846	1621.062500	32.038128
267.583038	899.583069	3201.406982	1639.118164	32.128220
267.955902	908.350769	3235.289063	1644.467896	31.634579
268.328766	910.356934	3226.372803	1651.229370	31.989092
268.701569	906.790344	3227.635986	1653.161255	32.159435
269.074371	891.855652	3230.310791	1661.260254	32.902260
269.447144	898.171326	3265.084229	1675.972290	32.861412
269.819885	903.223877	3318.359375	1714.832520	33.605099
270.192596	916.003906	3419.634033	1779.698853	34.497704
270.565277	926.109070	3577.081299	1880.527710	36.002590
270.937927	917.787170	3756.819580	1951.189453	36.399807
271.310577	914.146301	3973.041016	2006.916626	35.724350
271.683136	899.657410	4175.367188	2021.702759	34.253506
272.055725	901.440674	4344.777344	2022.371582	32.553623
272.428284	899.211609	4382.151855	2012.266235	31.957331
272.800812	897.874023	4332.071777	1991.461548	31.844046
273.173279	907.087585	4185.843750	1972.588501	32.497108
273.545776	906.493164	4063.467529	1939.672485	32.726883
273.918152	916.152527	3939.678955	1918.867676	33.163765
274.290558	911.620117	3880.682861	1892.044434	33.021339
274.662964	917.861511	3820.794678	1874.657593	32.959633
275.035278	904.264099	3775.395752	1862.249023	33.366112
275.407593	909.391052	3769.525391	1889.666870	34.273769
275.779907	911.843018	3831.568359	1944.353516	35.363274
276.152161	917.341370	3925.932861	1980.167480	35.326370
276.524384	915.632385	4015.319092	2006.470703	35.191891
276.896606	914.889404	4067.628174	2009.814331	34.729324
277.268799	916.672668	4114.661621	2021.702759	34.553902
277.640930	909.465271	4123.949219	2022.223022	34.616997
278.013031	907.533447	4136.432617	2030.693481	34.784611
278.385162	907.310547	4116.073730	2034.928711	35.141830
278.757233	907.904968	4103.516602	2038.940918	35.393410
279.129272	901.737793	4085.535156	2045.182251	35.914486
279.501282	893.416016	4097.200684	2054.098633	36.228485
279.873230	895.199219	4162.141113	2099.200439	36.854076
280.245178	897.948425	4276.790039	2160.426025	37.364212
280.617126	901.589172	4452.070313	2239.706787	37.688347
280.988983	896.388000	4626.607422	2304.796143	37.756710
281.360870	908.647949	4806.791504	2377.761475	37.687519
281.732697	906.567444	4952.499512	2424.794922	37.524792
282.104492	914.889465	5077.179199	2442.850830	36.709637
282.476288	904.487122	5152.967773	2429.996094	35.907169
282.848053	912.363098	5184.026855	2417.885010	35.244396
283.219757	905.898743	5212.261230	2412.609375	34.988014
283.591461	912.288757	5168.868652	2408.076904	35.140606
283.963135	910.951355	5133.129395	2412.015137	35.551880
284.334747	920.239258	5094.343262	2449.909424	36.646671
284.706360	913.849121	5159.729492	2500.583740	37.371159
285.077942	921.799561	5298.007324	2571.691406	37.701405
285.449524	926.406311	5453.820313	2610.106201	37.188999
285.821014	924.846008	5558.214844	2617.016113	36.521381
286.192535	913.180420	5681.260254	2641.535889	36.248459
286.563995	900.325989	5760.169922	2640.273193	35.802536
286.935425	893.936035	5813.890625	2640.718750	35.504040
287.306824	898.171326	5744.343750	2584.620361	34.799606
287.678223	898.691406	5625.458984	2542.193359	34.770103
288.049561	913.106140	5498.550293	2517.153320	34.981281
288.420898	906.716125	5361.535645	2503.035645	35.833542
288.792145	913.106140	5330.551758	2518.044922	36.331825
289.163452	907.533447	5360.940918	2554.304688	36.977783
289.534668	914.666504	5490.302246	2628.310059	37.451485
289.905914	908.499329	5628.951172	2697.486084	37.898636
290.277039	915.186584	5819.240234	2761.757813	37.653976
290.648193	923.434265	6011.089844	2791.627686	36.720119
291.019318	919.198914	6128.860840	2795.862549	36.022751
291.390381	909.911133	6132.649902	2756.184814	35.350681
291.761475	900.177490	6028.031250	2697.262939	35.045570
292.132507	903.075195	5926.533203	2658.699951	34.948532
292.503510	901.217712	5821.395020	2646.440186	35.470722
292.874481	930.492981	5818.274902	2701.275391	36.228756
293.245422	937.551758	5825.036621	2755.144775	37.188721
293.616364	944.833313	5943.846191	2840.741943	37.925663
293.987213	922.245300	6109.838379	2900.778320	38.139709
294.358093	922.393982	6327.248535	2974.783936	37.973083
294.728943	906.864746	6551.939453	3024.343750	37.510204
295.099731	897.799805	6726.550781	3095.822998	37.710022
295.470490	896.908203	6901.607910	3160.094971	37.690258
295.841248	914.963684	7013.359375	3230.310547	37.966492
296.211975	909.688171	7130.980957	3279.053467	38.084770
296.582642	902.852356	7278.992188	3333.516846	38.121258
296.953308	896.685242	7435.175781	3340.947266	37.382664
297.323883	903.149597	7541.280762	3335.077393	36.635727
297.694519	910.579895	7536.673340	3262.855469	35.500191
298.065063	921.576660	7448.327637	3215.524414	35.146854
298.435608	922.468323	7245.555176	3116.999023	34.706635
298.806122	921.353821	6955.626465	3032.591064	34.987438
299.176575	913.700623	6618.812500	2931.614014	35.370266
299.547028	918.158691	6387.433594	2867.119141	35.634712
299.917450	912.883240	6240.314453	2830.710938	35.999107
300.287872	902.629456	6169.206543	2817.485107	36.358639
300.658234	894.158936	6097.058594	2813.026611	36.880737
301.028564	902.109375	6028.848145	2802.327148	37.064846
301.398865	910.431335	5983.671875	2777.807373	36.808346
301.769135	913.997864	5929.134277	2750.835205	36.625874
302.139374	909.539551	5905.580078	2740.878906	36.655815
302.509583	899.731628	5867.686035	2717.770752	36.595325
302.879791	899.657410	5801.259277	2699.715088	36.723862
303.249939	898.319885	5683.415527	2657.436768	36.762421
303.620087	902.257874	5572.778809	2634.997314	37.099491
303.990173	894.976257	5505.236816	2613.449463	37.274967
304.360260	899.657410	5487.181641	2617.164551	37.438648
304.730286	901.812195	5474.772949	2622.885986	37.635872
305.100281	906.493164	5451.813477	2607.579590	37.425007
305.470276	903.595398	5439.182129	2613.821045	37.706821
305.840179	902.257996	5457.758301	2626.749756	37.855152
306.210144	900.846191	5479.751465	2645.994385	38.112782
306.579987	906.641785	5514.971191	2656.396729	37.969395
306.949890	906.641846	5544.915527	2667.170654	37.956554
307.319702	919.124695	5629.471191	2726.538330	38.371136
307.689484	918.307373	5705.854980	2770.971436	38.697556
308.059265	923.582825	5815.153809	2843.416260	39.247791
308.429016	915.335266	5939.759277	2883.614258	39.174225
308.798737	906.270325	6100.921875	2925.744141	38.876022
309.168396	897.725525	6236.003906	2952.344482	38.488419
309.538055	894.902039	6307.854980	2973.594971	38.402195
309.907684	891.335449	6332.226563	2967.947998	38.166771
310.277313	894.084656	6350.207520	2960.517578	37.873650
310.646851	899.285828	6375.990723	2946.028564	37.371788
311.016388	916.747009	6373.018066	2966.387451	37.564857
311.385895	940.003723	6321.006348	2950.709717	37.366756
311.755371	935.099792	6255.025879	2926.190186	37.427029
312.124817	923.657043	6190.605469	2867.341797	36.903435
312.494232	912.288757	6134.655762	2834.946045	36.815819
312.863617	912.660339	6056.043457	2811.094727	36.910225
313.232971	918.084412	6013.765137	2822.314453	37.369492
313.602295	909.836731	5988.725098	2847.057373	38.142612
313.971619	916.226807	6035.164063	2905.310547	38.857357
314.340820	909.465332	6053.368652	2932.802734	39.334671
314.710083	917.787292	6120.761230	2937.855469	38.825256
315.079285	925.217468	6143.571777	2900.629639	37.855076
315.448486	932.424805	6164.153809	2857.013916	36.786865
315.817596	930.418640	6057.678223	2782.636719	36.124912
316.186707	919.421875	5878.831543	2709.151611	36.087555
316.555786	913.626221	5678.957031	2654.539063	36.532883
316.924866	906.270264	5527.825684	2636.409180	37.436287
317.293884	904.487000	5444.680176	2632.916748	38.069515
317.662872	910.208313	5422.463867	2652.235352	38.606571
318.031830	905.750183	5412.953125	2668.582275	39.111439
318.400757	910.059753	5470.240723	2687.380859	38.974789
318.769684	905.378662	5513.707520	2698.377686	38.907791
319.138550	902.555176	5573.075684	2705.510498	38.602879
319.507416	904.635559	5574.041504	2688.197998	38.196777
319.876190	900.920471	5539.862793	2648.520508	37.672382
320.244995	926.926453	5502.859375	2631.207764	37.244453
320.613770	923.954407	5431.603027	2615.455811	37.525143
320.982483	927.446594	5394.525879	2620.136963	37.892555
321.351166	909.316711	5323.938477	2612.632324	38.583504
