Jaz Data File
++++++++++++++++++++++++++++++++++++
Date: Fri Jun 04 11:49:57 2021
User: jaz
Dark Spectrum Present: Yes
Reference Spectrum Present: Yes
Processed Spectrum Present: Yes
Spectrometers: JAZA3586
Integration Time (usec): 40000 (JAZA3586)
Spectra Averaged: 10 (JAZA3586)
Boxcar Smoothing: 1 (JAZA3586)
Correct for Electrical Dark: No (JAZA3586)
Strobe/Lamp Enabled: Yes (JAZA3586)
Correct for Detector Non-linearity: No (JAZA3586)
Correct for Stray Light: No (JAZA3586)
Number of Pixels in Processed Spectrum: 2048
>>>>>Begin Processed Spectral Data<<<<<
W	D	R	S	P
191.335022	0.000000	0.000000	0.000000	0.000000
191.713211	383.699249	385.259644	376.937714	-433.322266
192.091385	766.209656	765.392395	755.064270	1363.749023
192.469528	1150.726196	1154.069946	1130.590210	-602.197693
192.847641	1155.853149	1160.014038	1134.602539	-510.722870
193.225739	1163.877808	1177.029419	1141.289917	-171.749985
193.603790	1172.719727	1178.218262	1153.178223	-355.394714
193.981842	1184.534058	1180.224365	1161.351440	537.918152
194.359863	1191.146973	1181.264648	1168.038696	233.834427
194.737854	1193.598999	1187.060181	1173.239868	311.357941
195.115829	1192.855957	1188.546265	1175.766357	396.538727
195.493774	1186.094360	1186.094360	1167.964600	0.000000
195.871704	1180.595825	1186.094360	1160.088501	-372.959778
196.249603	1184.979858	1194.639160	1159.122559	-267.693268
196.627457	1194.861938	1196.719604	1164.695190	-1623.905884
197.005310	1200.954956	1200.731934	1169.524902	14092.775391
197.383133	1193.004517	1199.914673	1169.301880	-343.011597
197.760910	1190.403931	1203.629761	1171.159546	-145.506058
198.138687	1194.193359	1204.744263	1169.970581	-229.580139
198.516449	1199.023071	1197.388306	1168.261597	1881.705444
198.894180	1197.611206	1189.215088	1164.323608	396.464142
199.271866	1198.057007	1184.385498	1170.416382	202.176849
199.649536	1192.632935	1188.546387	1171.679565	512.740112
200.027191	1191.221069	1192.781616	1167.964478	-1490.284790
200.404816	1191.964233	1188.917847	1159.419678	1068.300171
200.782410	1188.843628	1194.267578	1161.202881	-509.605469
201.159988	1185.945801	1204.595703	1162.020264	-128.287735
201.537537	1180.075806	1226.812134	1166.701294	-28.616951
201.915070	1179.704224	1230.155762	1164.620972	-29.896515
202.292557	1181.190308	1230.007202	1158.230835	-47.031818
202.670029	1175.989136	1212.248901	1152.212280	-65.573662
203.047485	1171.233765	1209.796997	1149.611694	-56.069134
203.424911	1169.599243	1206.676147	1161.648682	-21.443434
203.802292	1173.165649	1217.524414	1166.478394	-15.075388
204.179688	1182.453491	1212.100220	1161.945923	-69.173126
204.557037	1185.648560	1207.790649	1154.812866	-139.262802
204.934357	1185.574219	1207.344849	1145.822388	-182.593842
205.311661	1177.326660	1210.762817	1157.265015	-59.999855
205.688934	1174.725952	1215.146606	1160.385620	-35.477734
206.066177	1177.252319	1201.029175	1164.918091	-51.874935
206.443390	1180.001465	1204.892944	1156.893433	-92.835106
206.820587	1182.304932	1206.973389	1158.007935	-98.494194
207.197769	1183.122192	1214.403687	1165.140991	-57.481915
207.574921	1182.973633	1211.282959	1169.822144	-46.456383
207.952042	1181.487427	1207.419312	1170.044922	-44.125233
208.329147	1178.961304	1210.762817	1165.809692	-41.355301
208.706223	1188.843384	1225.177490	1165.512451	-64.212212
209.083267	1187.431763	1224.360229	1161.574341	-70.020294
209.460297	1178.961304	1223.765869	1156.373169	-50.414806
209.837280	1169.822144	1209.945679	1152.138062	-44.074089
210.214264	1168.558960	1208.162231	1155.035767	-34.146656
210.591217	1167.964478	1212.248901	1150.577637	-39.261753
210.968124	1163.357788	1212.843262	1151.023560	-24.924948
211.345016	1163.952148	1217.004272	1142.330078	-40.756275
211.721893	1156.373291	1216.558472	1150.503418	-9.753020
212.098724	1153.549683	1214.849487	1154.144165	0.969795
212.475555	1153.178223	1217.227173	1164.546509	17.749372
212.852356	1168.707520	1210.911377	1159.270996	-22.359386
213.229126	1169.376221	1210.391235	1152.360840	-41.485737
213.605865	1171.085083	1205.933105	1140.695313	-87.206589
213.982590	1163.580566	1205.264526	1137.128784	-63.457939
214.359283	1166.701294	1204.075562	1139.432251	-72.962082
214.735931	1167.370117	1203.703979	1147.234009	-55.419674
215.112579	1173.016968	1207.567871	1156.596191	-47.526329
215.489197	1171.976807	1206.156128	1151.989380	-58.478127
215.865799	1169.896362	1202.440918	1147.605591	-68.493088
216.242355	1169.079102	1209.351074	1138.912109	-74.908157
216.618896	1170.044922	1218.787598	1135.494263	-70.883797
216.995407	1166.032593	1227.555298	1142.404297	-38.405815
217.371902	1160.980103	1223.097046	1148.794312	-19.617500
217.748367	1163.134766	1215.295288	1154.292847	-16.951363
218.124802	1166.701416	1221.016602	1151.246338	-28.454433
218.501236	1165.289673	1212.694702	1154.144165	-23.511234
218.877609	1168.113159	1216.781372	1156.150269	-24.580502
219.253983	1169.227661	1202.440918	1151.617798	-53.020584
219.630295	1176.286499	1212.546143	1147.679810	-78.894020
220.006592	1176.880859	1215.443848	1147.456909	-76.301010
220.382889	1178.366821	1219.827759	1149.537476	-69.533752
220.759140	1175.840576	1210.688599	1150.280518	-73.347229
221.135391	1171.902710	1208.013672	1154.144165	-49.177711
221.511581	1165.958374	1219.233398	1161.128784	-9.065392
221.887772	1168.187500	1226.737915	1156.224731	-20.431570
222.263931	1166.032593	1223.171387	1142.181519	-41.742348
222.640060	1173.537109	1216.484253	1134.602539	-90.656952
223.016159	1167.221558	1215.146606	1134.528320	-68.217430
223.392212	1174.354492	1222.502563	1151.989380	-46.450691
223.768265	1177.178101	1217.227051	1154.738647	-56.030067
224.144302	1183.568115	1225.103271	1163.283325	-48.837639
224.520294	1173.462891	1223.840210	1157.487671	-31.711136
224.896286	1162.540283	1232.162109	1166.775513	6.083192
225.272217	1159.493896	1225.549072	1162.837524	5.061871
225.648148	1169.450562	1230.007324	1161.128784	-13.742110
226.024048	1169.822144	1228.967041	1147.977051	-36.934872
226.399902	1167.592896	1239.220825	1153.921265	-19.087011
226.775772	1159.568237	1235.654175	1155.630127	-5.175871
227.151581	1165.883911	1249.548950	1163.506226	-2.841911
227.527374	1166.329956	1250.069092	1155.258667	-13.221165
227.903137	1171.679565	1254.750122	1150.949219	-24.955107
228.278870	1167.370117	1259.208130	1150.726196	-18.123129
228.654572	1173.314331	1262.848999	1148.942993	-27.220001
229.030273	1171.010864	1275.480469	1151.692261	-18.492081
229.405930	1170.193481	1276.446411	1149.685913	-19.300709
229.781555	1172.794067	1289.895142	1157.041870	-13.451796
230.157181	1173.685669	1294.056152	1157.339233	-13.580103
230.532761	1168.038818	1294.056152	1158.230835	-7.783043
230.908325	1158.676636	1288.334839	1148.497192	-7.850983
231.283859	1158.899536	1286.180054	1143.518921	-12.084029
231.659332	1166.181274	1290.043823	1152.063843	-11.397659
232.034821	1169.376221	1285.882813	1159.865601	-8.163160
232.410263	1171.902466	1278.824097	1164.323608	-7.088236
232.785690	1167.667236	1273.251465	1152.138062	-14.707854
233.161087	1169.598999	1279.938599	1145.673706	-21.683325
233.536469	1167.741577	1279.418579	1150.057617	-15.834916
233.911804	1165.363892	1277.115234	1155.110107	-9.175535
234.287140	1167.667236	1277.040894	1160.385620	-6.657559
234.662430	1173.091431	1286.774536	1158.676636	-12.679804
235.037704	1181.338989	1299.183105	1161.351440	-16.961006
235.412933	1181.264648	1301.040649	1156.447510	-20.719625
235.788162	1165.735474	1298.588745	1147.456909	-13.758460
236.163345	1156.224731	1290.564087	1143.964722	-9.126149
236.538513	1152.212280	1294.204834	1148.720215	-2.459330
236.913635	1155.853149	1301.858032	1154.961548	-0.610666
237.288742	1162.614746	1301.932251	1152.286621	-7.413372
237.663834	1159.791138	1301.635132	1154.515625	-3.719236
238.038879	1169.747681	1302.452515	1156.001709	-10.358305
238.413910	1169.970703	1307.505005	1158.676636	-8.211819
238.788910	1169.747681	1315.083862	1159.568237	-7.004067
239.163879	1164.472290	1323.628662	1156.373413	-5.088629
239.538834	1162.391846	1337.969116	1160.682739	-0.973421
239.913757	1165.512573	1340.123901	1159.791138	-3.276669
240.288651	1170.119263	1348.668579	1165.215210	-2.746610
240.663528	1174.874634	1364.346558	1164.100708	-5.686291
241.038361	1180.521606	1400.531860	1168.261719	-5.572416
241.413177	1178.664063	1438.649292	1167.890259	-4.144006
241.787979	1176.806641	1472.011230	1173.240112	-1.208155
242.162735	1175.246216	1500.766479	1175.320435	0.022800
242.537476	1175.246216	1516.369995	1174.428833	-0.239615
242.912170	1173.388550	1528.109863	1168.335938	-1.424389
243.286865	1166.032593	1518.004517	1165.512451	-0.147779
243.661514	1168.187378	1513.100586	1168.113159	-0.021518
244.036148	1168.187378	1497.571289	1173.388550	1.579061
244.410751	1172.199707	1489.695313	1171.010864	-0.374444
244.785339	1165.883911	1481.521851	1169.153320	1.035810
245.159882	1165.586792	1497.868530	1160.534180	-1.520581
245.534378	1161.202881	1527.143921	1162.986206	0.487326
245.908890	1160.979980	1575.589233	1160.757202	-0.053732
246.283356	1163.729370	1636.814819	1159.865479	-0.816743
246.657791	1163.803589	1706.510620	1155.704590	-1.492334
247.032196	1163.580688	1770.411133	1170.936523	1.212173
247.406586	1164.695190	1815.067017	1185.128418	3.141776
247.780960	1168.484619	1828.887207	1194.490601	3.937898
248.155289	1168.261719	1810.311523	1184.459595	2.522838
248.529602	1166.552612	1761.197388	1182.973633	2.761484
248.903870	1161.277222	1706.436401	1181.636230	3.734507
249.278122	1160.979980	1662.226196	1178.069702	3.409446
249.652344	1155.927368	1627.898315	1169.376221	2.849509
250.026550	1164.249268	1600.926392	1170.713745	1.480379
250.400711	1164.620850	1582.425171	1172.051147	1.778416
250.774857	1174.057251	1583.613892	1174.280151	0.054425
251.148987	1168.930298	1596.245483	1168.856079	-0.017369
251.523071	1168.113159	1620.468140	1168.484497	0.082090
251.897125	1163.803589	1637.260620	1169.302002	1.161333
252.271164	1168.187378	1657.842407	1173.462891	1.077394
252.645187	1174.131470	1654.573120	1175.543335	0.293868
253.019165	1177.475220	1654.647461	1173.314331	-0.871989
253.393112	1178.515503	1638.449341	1170.416504	-1.760905
253.767044	1178.515503	1613.632202	1173.462891	-1.161209
254.140930	1171.828247	1584.951294	1172.348267	0.125875
254.514801	1163.506348	1572.542603	1172.348267	2.161647
254.888657	1158.305176	1578.041138	1168.930420	2.531411
255.262466	1161.128662	1593.124634	1173.239868	2.803546
255.636276	1172.199707	1599.960571	1176.806519	1.076960
256.010010	1175.766235	1613.929565	1176.806519	0.237419
256.383759	1177.326538	1631.762207	1178.292603	0.212586
256.757446	1170.490723	1667.055786	1173.017090	0.508769
257.131134	1172.125366	1707.179321	1173.462891	0.249979
257.504791	1165.883911	1747.674316	1177.995361	2.081755
257.878418	1167.295776	1800.354980	1187.654663	3.215953
258.252014	1167.072876	1870.570923	1195.084961	3.981828
258.625580	1169.599121	1976.526733	1197.239746	3.425416
258.999115	1173.091431	2103.510010	1201.995117	3.106525
259.372650	1171.902466	2242.010498	1208.682495	3.437039
259.746124	1174.131714	2349.823486	1221.016602	3.987855
260.119598	1175.914917	2406.367920	1225.771973	4.051927
260.493042	1173.388550	2409.562988	1229.709961	4.556106
260.866425	1174.428711	2355.916260	1213.586304	3.314262
261.239838	1168.633179	2268.907959	1201.177734	2.957857
261.613159	1163.803589	2167.633301	1191.889893	2.797915
261.986511	1163.060547	2085.826172	1193.970337	3.349690
262.359802	1165.883911	2037.083374	1198.057007	3.692966
262.733063	1166.478394	2002.978394	1199.617310	3.961616
263.106293	1165.512573	1986.706055	1201.549194	4.388323
263.479523	1158.973877	1971.102417	1200.731934	5.141804
263.852692	1162.614746	1967.461792	1202.143677	4.911359
264.225861	1156.224609	1959.213989	1201.177734	5.598222
264.598969	1162.020386	1958.545288	1200.360474	4.813420
264.972076	1167.221313	1976.600952	1192.707153	3.148812
265.345154	1176.434937	2015.312622	1199.320190	2.728080
265.718201	1177.623901	2060.711670	1204.670044	3.062679
266.091217	1179.630005	2110.791748	1215.295410	3.830205
266.464203	1184.459595	2160.946045	1207.344849	2.343632
266.837158	1180.893066	2207.533936	1199.245972	1.787666
267.210114	1179.184204	2238.740967	1192.261353	1.234209
267.583038	1173.834351	2248.028809	1196.942505	2.151208
267.955902	1178.961304	2261.180420	1201.177734	2.052859
268.328766	1169.896362	2265.935791	1201.549194	2.887928
268.701569	1164.769409	2285.700195	1198.131226	2.976260
269.074371	1159.716797	2302.641357	1201.549194	3.660119
269.447144	1171.307983	2326.418213	1209.871216	3.338489
269.819885	1178.292480	2376.052490	1215.666748	3.120347
270.192596	1181.190308	2465.661377	1226.589233	3.534445
270.565277	1174.725952	2581.648193	1239.295044	4.589386
270.937927	1177.103638	2701.498291	1240.706909	4.172362
271.310577	1177.029419	2780.630615	1237.660400	3.780926
271.683136	1181.041626	2834.797119	1233.499512	3.172046
272.055725	1171.605347	2859.762939	1233.276489	3.653163
272.428284	1170.490723	2848.617432	1233.425293	3.750287
272.800812	1165.140991	2819.936768	1224.657471	3.596606
273.173279	1166.998535	2747.640381	1224.954712	3.666623
273.545776	1162.614624	2709.300049	1216.781372	3.502118
273.918152	1168.781738	2664.718506	1226.143555	3.834508
274.290558	1164.769409	2662.266602	1221.610962	3.795770
274.662964	1163.283325	2652.532715	1226.440552	4.240877
275.035278	1161.277222	2674.303467	1222.205444	4.026911
275.407593	1168.335938	2687.752441	1225.771973	3.780138
275.779907	1176.806519	2724.755127	1225.474854	3.144054
276.152161	1177.252319	2765.770264	1227.926758	3.190045
276.524384	1181.413208	2811.540771	1233.053711	3.167881
276.896606	1173.091309	2844.531250	1234.539673	3.676373
277.268799	1170.416504	2855.007813	1236.843140	3.943190
277.640930	1163.060547	2867.490479	1236.545898	4.311433
278.013031	1170.267944	2871.057373	1237.883423	3.975535
278.385162	1177.846680	2892.381836	1230.378784	3.063927
278.757233	1188.620605	2898.846436	1229.932983	2.415610
279.129272	1188.174805	2925.520752	1225.846313	2.168337
279.501282	1173.834351	2943.799561	1223.840210	2.825245
279.873230	1165.215210	3005.396484	1222.799927	3.129296
280.245178	1166.701294	3088.912842	1232.459229	3.420952
280.617126	1168.558960	3204.676025	1240.706909	3.543409
280.988983	1172.942749	3308.551758	1245.908081	3.416605
281.360870	1172.571167	3404.996338	1248.211426	3.388255
281.732697	1176.063477	3466.370850	1248.211426	3.150143
282.104492	1173.685669	3499.583984	1256.310425	3.552380
282.476288	1169.004761	3511.175049	1264.558105	4.079692
282.848053	1175.023193	3506.791016	1266.415527	3.919444
283.219757	1173.016968	3510.877930	1259.505371	3.699468
283.591461	1173.611450	3487.769775	1256.830444	3.596081
283.963135	1168.336060	3508.722900	1259.802612	3.908181
284.334747	1166.849976	3569.651367	1263.071899	4.004573
284.706360	1167.890259	3659.260498	1265.226685	3.906944
285.077942	1172.422607	3750.504150	1273.325684	3.913882
285.449524	1177.549561	3834.094482	1278.155396	3.787093
285.821014	1179.407104	3860.323486	1275.777710	3.594689
286.192535	1173.537231	3893.759766	1272.062500	3.621956
286.563995	1167.518677	3876.150391	1273.102905	3.898065
286.935425	1163.654907	3864.558838	1269.759155	3.928472
287.306824	1167.592896	3792.113525	1272.434204	3.994684
287.678223	1173.983032	3713.872803	1266.638550	3.648014
288.049561	1180.521606	3666.393555	1265.746704	3.428378
288.420898	1173.165649	3650.344482	1262.180298	3.593388
288.792145	1171.159546	3690.690674	1264.780884	3.715824
289.163452	1166.924194	3781.785889	1274.514526	4.114571
289.534668	1174.205811	3891.233643	1276.446411	3.762957
289.905914	1167.815918	4000.755615	1275.629028	3.805697
290.277039	1171.233765	4079.516357	1278.824219	3.699450
290.648193	1176.732178	4127.144531	1285.214233	3.676844
291.019318	1181.710449	4131.603027	1290.415405	3.685048
291.390381	1175.394653	4094.154297	1283.653809	3.709081
291.761475	1169.376099	4036.569580	1284.619873	4.019393
292.132507	1168.558838	3992.433594	1280.310303	3.957380
292.503510	1171.902466	3973.486328	1278.898438	3.819124
292.874481	1167.147095	4019.182861	1275.406250	3.795856
293.245422	1170.490723	4092.593750	1284.768188	3.910795
293.616364	1173.016968	4219.279785	1294.427612	3.985561
293.987213	1176.880859	4340.690430	1299.926147	3.889150
294.358093	1170.490723	4442.262207	1304.532959	4.096931
294.728943	1168.187378	4547.623535	1310.477173	4.210460
295.099731	1162.094604	4641.765625	1320.656616	4.556810
295.470490	1170.119263	4767.113770	1331.207520	4.478413
295.841248	1162.391724	4860.363770	1338.786499	4.770041
296.211975	1168.261719	4963.718750	1339.678101	4.516357
296.582642	1167.593018	5049.390137	1345.770874	4.590087
296.953308	1180.967529	5088.250000	1346.885376	4.246375
297.323883	1175.097534	5076.881836	1344.730591	4.347577
297.694519	1164.100708	4989.798828	1330.836060	4.358299
298.065063	1152.880981	4884.734863	1321.325317	4.513690
298.435608	1155.035767	4732.785645	1306.836304	4.242905
298.806122	1164.918091	4571.475098	1299.480347	3.950095
299.176575	1170.713745	4409.940918	1290.192383	3.688492
299.547028	1168.187378	4311.712402	1286.031494	3.748789
299.917450	1168.856079	4277.162109	1288.260620	3.841467
300.287872	1163.357666	4286.301270	1291.084106	4.089938
300.658234	1171.159546	4277.533691	1296.136597	4.023245
301.028564	1169.747681	4250.487793	1295.319336	4.076022
301.398865	1174.354370	4208.580566	1292.570190	3.896078
301.769135	1170.342163	4164.370117	1295.988037	4.196550
302.139374	1167.370117	4113.992676	1288.780762	4.120332
302.509583	1163.803467	4074.835205	1285.140015	4.168163
302.879791	1162.465942	4040.061523	1278.601196	4.035843
303.249939	1168.633179	4004.768311	1273.845825	3.709719
303.620087	1177.103638	3962.638672	1275.554810	3.534372
303.990173	1181.636108	3946.960938	1270.205078	3.202842
304.360260	1181.338989	3939.604736	1271.765259	3.278374
304.730286	1180.670288	3938.118408	1275.851929	3.451802
305.100281	1182.081909	3930.836670	1281.276001	3.608692
305.470276	1174.354492	3935.443604	1283.653687	3.958554
305.840179	1164.843750	3955.208008	1274.440308	3.927679
306.210144	1159.345337	3985.375000	1271.170898	3.956985
306.579987	1168.856079	4013.758545	1270.799438	3.583369
306.949890	1173.685791	4058.563232	1275.257690	3.520839
307.319702	1172.942749	4135.986328	1291.975708	4.017253
307.689484	1167.444336	4244.022461	1306.167603	4.509012
308.059265	1169.153320	4352.653320	1312.854736	4.513944
308.429016	1171.605347	4428.813965	1308.470947	4.201930
308.798737	1170.044922	4499.550293	1310.105591	4.206651
309.168396	1164.026367	4535.215332	1314.935181	4.476427
309.538055	1163.952026	4554.236816	1312.780396	4.389849
309.907684	1169.970703	4546.063965	1315.529663	4.311461
310.277313	1170.044922	4559.363770	1314.860962	4.272718
310.646851	1171.679565	4556.911621	1319.170532	4.356894
311.016388	1164.695190	4552.676270	1313.597900	4.395028
311.385895	1174.280151	4495.537598	1310.328613	4.096294
311.755371	1176.732178	4448.355469	1310.848633	4.099386
312.124817	1177.103638	4386.535645	1308.916870	4.107058
312.494232	1167.890015	4343.736816	1315.009644	4.632454
312.863617	1162.465942	4318.771484	1316.867065	4.891830
313.232971	1164.769409	4339.650391	1325.486328	5.062140
313.602295	1168.410278	4408.529297	1334.997070	5.141378
313.971619	1167.890015	4480.825684	1342.353027	5.266116
314.340820	1165.735352	4517.977051	1350.674927	5.516892
314.710083	1172.274048	4519.462891	1343.244507	5.107882
315.079285	1177.400879	4470.200195	1336.334473	4.826702
315.448486	1177.623901	4397.532227	1325.560669	4.594440
315.817596	1173.983032	4278.647949	1328.384155	4.973197
316.186707	1171.456665	4186.958008	1327.640991	5.179381
316.555786	1173.908691	4103.664551	1325.709229	5.181337
316.924866	1172.422729	4052.469971	1326.823730	5.361058
317.293884	1171.308228	4034.043213	1334.699829	5.707535
317.662872	1170.416626	4040.359375	1343.021606	6.014231
318.031830	1170.119263	4074.538330	1339.009399	5.814937
318.400757	1173.834473	4110.575195	1341.312622	5.702858
318.769684	1176.286377	4135.317871	1342.798706	5.627258
