Jaz Data File
++++++++++++++++++++++++++++++++++++
Date: Fri Jun 04 13:45:26 2021
User: jaz
Dark Spectrum Present: Yes
Reference Spectrum Present: Yes
Processed Spectrum Present: Yes
Spectrometers: JAZA3586
Integration Time (usec): 386000 (JAZA3586)
Spectra Averaged: 10 (JAZA3586)
Boxcar Smoothing: 1 (JAZA3586)
Correct for Electrical Dark: No (JAZA3586)
Strobe/Lamp Enabled: Yes (JAZA3586)
Correct for Detector Non-linearity: No (JAZA3586)
Correct for Stray Light: No (JAZA3586)
Number of Pixels in Processed Spectrum: 2048
>>>>>Begin Processed Spectral Data<<<<<
W	D	R	S	P
191.335022	0.000000	0.000000	0.000000	0.000000
191.713211	286.065460	285.248138	286.139771	-9.091928
192.091385	572.502502	577.257874	572.502441	-0.001283
192.469528	854.406982	861.837219	861.317078	92.999664
192.847641	859.682556	865.923828	863.249023	57.143276
193.225739	885.911377	882.047607	885.539856	9.615506
193.603790	921.205139	908.276550	898.022705	179.311401
193.981842	931.979004	931.904785	917.712891	19221.710938
194.359863	932.573425	939.037842	920.164856	-191.951889
194.737854	946.170898	946.913879	941.415466	-640.047668
195.115829	950.108887	942.530029	947.359680	36.274685
195.493774	946.170837	931.384583	944.907715	8.542545
195.871704	932.499207	924.103027	932.573486	-0.884686
196.249603	954.121277	933.465088	940.895325	64.029007
196.627457	952.337952	942.604309	938.814941	138.930618
197.005310	948.399902	940.300964	938.220459	125.688622
197.383133	928.486816	932.424988	927.892395	-15.093843
197.760910	946.839539	940.375305	949.663086	-43.679539
198.138687	946.839600	944.536194	957.093323	-445.154877
198.516449	949.663086	944.164612	954.344055	-85.132149
198.894180	927.966614	930.715820	933.910889	216.217834
199.271866	925.291748	933.687988	930.938782	67.256699
199.649536	922.765442	935.174011	929.824219	56.886307
200.027191	932.870667	943.793030	932.053284	-7.483571
200.404816	924.325867	940.300842	921.948181	-14.883813
200.782410	923.880066	954.046875	930.492981	21.921162
201.159988	922.616882	964.077820	934.653992	29.032410
201.537537	931.756165	977.377991	942.158508	22.801243
201.915070	928.561218	968.610352	933.093506	11.316818
202.292557	920.685059	963.780579	931.756104	25.689548
202.670029	919.719177	959.396729	941.043945	53.745171
203.047485	921.502441	963.483398	950.406067	68.849373
203.424911	920.016357	963.929199	961.774414	95.093040
203.802292	913.997803	969.353333	957.762024	79.060249
204.179688	909.465332	967.867249	953.081055	74.682007
204.557037	912.363098	964.597961	948.028503	68.278931
204.934357	925.737610	956.350342	951.520691	84.223389
205.311661	936.288574	955.161438	950.406067	74.803131
205.688934	933.242188	959.396729	946.022278	48.863754
206.066177	919.570496	957.019043	940.598145	56.150772
206.443390	908.796631	960.436951	940.375305	61.151199
206.820587	908.870911	949.365906	938.814941	73.945015
207.197769	923.508545	966.678406	940.969727	40.447620
207.574921	926.332031	963.706299	942.084167	42.147011
207.952042	931.533203	973.514221	937.997498	15.398136
208.329147	931.236023	965.489563	939.780762	24.945564
208.706223	1056.881958	1091.878540	1059.854004	8.492389
209.083267	1059.556763	1097.971313	1074.640259	39.265060
209.460297	1049.600220	1098.119995	1072.782593	47.779224
209.837280	920.759277	970.393555	959.916748	78.891991
210.214264	906.344543	961.179993	949.217224	78.184242
210.591217	898.617126	952.189392	941.341125	79.750221
210.968124	907.384827	968.387390	946.170898	63.581051
211.345016	922.245422	974.183044	951.594971	56.509228
211.721893	922.839844	977.526611	954.269836	57.472755
212.098724	917.638672	957.390625	949.811707	80.934479
212.475555	922.542664	960.214111	952.040833	78.303787
212.852356	933.390686	959.248230	953.155334	76.436684
213.229126	940.003723	970.170593	953.303955	44.088871
213.605865	923.880066	955.904480	937.180176	41.531158
213.982590	911.768738	956.053040	934.728210	51.845623
214.359283	899.805969	953.155273	921.205078	40.111317
214.735931	895.942200	960.511230	926.183411	46.835472
215.112579	900.400391	967.644287	935.471191	52.154625
215.489197	901.440613	968.610352	939.706543	56.969002
215.865799	909.168152	980.275879	945.279236	50.783630
216.242355	903.818298	971.359558	935.471252	46.864620
216.618896	918.307312	983.768066	944.684814	40.295139
216.995407	915.409424	969.873352	941.043945	47.066971
217.371902	914.889343	968.387390	938.517639	44.166653
217.748367	902.183594	955.978821	933.985168	59.115978
218.124802	902.852356	961.551514	928.412537	43.544373
218.501236	903.595398	957.539124	928.709717	46.556515
218.877609	908.499329	960.288391	925.366028	32.568073
219.253983	904.858582	960.065430	929.527039	44.683689
219.630295	903.669617	983.247864	938.517578	43.790813
220.006592	900.846191	991.644043	940.152344	43.289738
220.382889	907.533386	998.554199	940.300964	36.000095
220.759140	914.146301	988.746277	946.393799	43.227222
221.135391	910.877014	994.244690	949.440125	46.256668
221.511581	903.669739	994.913391	948.028503	48.615726
221.887772	899.508789	1005.092957	946.542297	44.545986
222.263931	911.248535	1011.780212	950.777649	39.320057
222.640060	924.994568	1017.947266	960.659851	38.369282
223.016159	926.852112	1022.999817	950.108887	24.188591
223.392212	914.220703	1022.033875	950.257507	33.425232
223.768265	899.434387	1027.532349	949.068665	38.747124
224.144302	892.672913	1027.532349	950.183289	42.644680
224.520294	893.787415	1023.668640	938.591980	34.496567
224.896286	909.242432	1033.179321	944.536194	28.477205
225.272217	919.124695	1041.947144	955.384460	29.522100
225.648148	927.595215	1066.392578	963.632019	25.963608
226.024048	909.019470	1065.798218	955.607361	29.715693
226.399902	903.743958	1077.612305	947.582581	25.213688
226.775772	894.307556	1072.708374	942.158508	26.822159
227.151581	910.431152	1098.194214	951.297791	21.765005
227.527374	903.669617	1127.469360	957.316223	23.970808
227.903137	910.579773	1175.394897	978.641113	25.701454
228.278870	908.127869	1238.329224	989.192139	24.549952
228.654572	914.369324	1308.396729	1003.681152	22.666401
229.030273	909.688171	1396.891235	1005.464355	19.658371
229.405930	901.589172	1473.497192	1009.105164	18.799524
229.781555	906.121765	1537.992065	1011.259949	16.639204
230.157181	908.276550	1551.960938	1009.253845	15.687392
230.532761	904.338379	1529.001343	1004.869934	16.093727
230.908325	895.570618	1470.748047	994.839111	17.258760
231.283859	892.598572	1427.578125	990.826721	18.361103
231.659332	899.434387	1381.139038	983.322205	17.414783
232.034821	902.778015	1356.321899	983.768066	17.857159
232.410263	903.298157	1334.996948	977.526611	17.194502
232.785690	899.508728	1312.037476	969.799133	17.038910
233.161087	903.075195	1299.851685	964.895020	15.580516
233.536469	904.264099	1280.235840	961.922913	15.335943
233.911804	907.161865	1289.449463	972.473938	17.084539
234.287140	909.688171	1298.291382	977.526611	17.456995
234.662430	912.363098	1324.446045	987.854675	18.319510
235.037704	912.734619	1341.981445	989.266418	17.829323
235.412933	901.514954	1348.000000	991.941406	20.252964
235.788162	893.044434	1346.365356	990.083801	21.406328
236.163345	900.549011	1348.371460	995.730774	21.254353
236.538513	908.053650	1364.792358	1003.086731	20.806881
236.913635	908.722351	1371.108032	1006.876282	21.227718
237.288742	901.217773	1377.423828	1004.721436	21.735058
237.663834	898.171326	1372.668457	1001.229187	21.719385
238.038879	899.880188	1375.937866	1000.783386	21.195583
238.413910	898.394226	1389.683716	1005.018555	21.702953
238.788910	899.285828	1402.538208	1004.572754	20.921297
239.163879	903.595398	1417.770142	1020.250671	22.687866
239.538834	908.573669	1425.051880	1019.359070	21.450159
239.913757	914.294983	1469.336304	1030.950317	21.017414
240.288651	916.375488	1509.756836	1036.077148	20.172804
240.663528	908.127869	1562.214478	1050.269043	21.731247
241.038361	897.725403	1609.619751	1064.163696	23.379635
241.413177	897.948425	1708.219604	1079.395630	22.393393
241.787979	899.508789	1819.970825	1104.955811	22.319988
242.162735	903.818359	1958.619629	1126.800903	21.139769
242.537476	896.833801	2076.760986	1149.611694	21.423176
242.912170	919.050293	2205.007568	1166.478394	19.240772
243.286865	924.920227	2262.815186	1172.794067	18.527151
243.661514	924.697327	2259.768799	1166.478394	18.109970
244.036148	912.883118	2186.951904	1151.023438	18.691322
244.410751	914.740784	2082.259521	1132.299194	18.634253
244.785339	916.747009	1999.040405	1122.862793	19.044353
245.159882	913.626221	1949.777710	1136.534424	21.513090
245.534378	916.003906	1986.854858	1164.546631	23.209833
245.908890	913.477600	2072.005859	1203.258301	25.012829
246.283356	907.236145	2235.694580	1233.202271	24.537170
246.657791	888.214661	2451.172607	1276.149292	24.820541
247.032196	896.833801	2719.405029	1318.501831	23.135887
247.406586	900.994690	2953.755859	1347.777100	21.764948
247.780960	911.694336	3110.163086	1357.213501	20.264977
248.155289	900.325989	3134.237305	1339.901001	19.677370
248.529602	897.725403	3042.547852	1316.124023	19.507378
248.903870	901.143372	2861.620850	1281.053101	19.378428
249.278122	904.784180	2650.155273	1241.152710	19.272036
249.652344	897.725525	2462.020752	1212.323120	20.111141
250.026550	896.908203	2311.557861	1196.125122	21.151308
250.400711	916.226868	2211.323242	1208.608032	22.576015
250.774857	924.103027	2137.243408	1219.976440	24.389050
251.148987	927.298035	2105.442139	1217.152832	24.602661
251.523071	907.904968	2105.293701	1215.221069	25.665525
251.897125	926.629211	2160.351807	1225.623413	24.235123
252.271164	916.003906	2223.211914	1240.261108	24.805326
252.645187	912.808899	2283.694092	1236.174316	23.588074
253.019165	892.524231	2297.291748	1218.416016	23.198982
253.393112	920.610657	2290.455566	1227.555176	22.407246
253.767044	925.663269	2211.546143	1216.855713	22.645332
254.140930	928.858337	2130.110352	1207.642090	23.207767
254.514801	910.356934	2040.947266	1188.917969	24.638548
254.888657	911.099915	1997.777344	1184.756958	25.182913
255.262466	914.815125	1962.334961	1186.911621	25.975309
255.636276	923.285645	1973.926147	1198.651489	26.209332
256.010010	924.845947	1996.365601	1216.038208	27.175634
256.383759	921.948181	2038.272339	1238.626343	28.367937
256.757446	910.059753	2080.996338	1244.496216	28.561451
257.131134	906.493225	2157.973877	1267.455933	28.842850
257.504791	902.629456	2259.025391	1286.180176	28.277193
257.878418	903.521057	2365.352783	1319.096191	28.428383
258.252014	911.471436	2515.964600	1366.798462	28.378246
258.625580	915.558105	2692.581787	1441.695679	29.607798
258.999115	906.195984	2939.787109	1522.239868	30.293400
259.372650	900.103210	3214.038330	1600.629272	30.274231
259.746124	892.004150	3535.992188	1652.789673	28.774166
260.119598	899.211426	3831.642578	1698.708618	27.263971
260.493042	898.096924	4030.105225	1712.083130	25.989273
260.866425	903.669617	4079.516602	1695.811035	24.942682
261.239838	902.926575	3933.289063	1634.139648	24.129557
261.613159	903.669678	3662.158203	1560.803101	23.822227
261.986511	904.264160	3344.142578	1502.326782	24.511984
262.359802	912.734619	3084.677490	1457.745117	25.093224
262.733063	908.425049	2920.096924	1440.358276	26.442345
263.106293	913.626221	2820.679688	1422.005493	26.657841
263.479523	911.174255	2762.203857	1427.058105	27.870104
263.852692	923.508545	2723.714600	1411.974609	27.133898
264.225861	917.712952	2684.185791	1401.349243	27.378641
264.598969	921.205139	2666.427490	1402.909668	27.601326
264.972076	919.198975	2672.297607	1418.587524	28.486050
265.345154	926.777832	2719.108154	1461.683105	29.844124
265.718201	915.112305	2767.107422	1481.299194	30.571728
266.091217	927.075012	2861.174561	1527.886719	31.064156
266.464203	927.223633	2945.731201	1545.868164	30.648611
266.837158	928.858215	3059.340088	1564.815308	29.850386
267.210114	906.716125	3136.391846	1577.075195	30.065315
267.583038	899.583069	3201.406982	1588.369263	29.923496
267.955902	908.350769	3235.289063	1616.307129	30.424374
268.328766	910.356934	3226.372803	1614.003784	30.381781
268.701569	906.790344	3227.635986	1616.975952	30.600294
269.074371	891.855652	3230.310791	1619.279297	31.107018
269.447144	898.171326	3265.084229	1634.436890	31.106577
269.819885	903.223877	3318.359375	1670.473999	31.768410
270.192596	916.003906	3419.634033	1716.392944	31.969141
270.565277	926.109070	3577.081299	1810.237305	33.351093
270.937927	917.787170	3756.819580	1868.936401	33.502583
271.310577	914.146301	3973.041016	1932.539551	33.292850
271.683136	899.657410	4175.367188	1945.616821	31.930775
272.055725	901.440674	4344.777344	1956.613647	30.643909
272.428284	899.211609	4382.151855	1936.774536	29.789860
272.800812	897.874023	4332.071777	1916.341309	29.656630
273.173279	907.087585	4185.843750	1890.855469	30.004301
273.545776	906.493164	4063.467529	1875.326294	30.688660
273.918152	916.152527	3939.678955	1847.983032	30.819328
274.290558	911.620117	3880.682861	1837.506226	31.184458
274.662964	917.861511	3820.794678	1827.178223	31.324066
275.035278	904.264099	3775.395752	1832.676636	32.336121
275.407593	909.391052	3769.525391	1849.766235	32.878708
275.779907	911.843018	3831.568359	1898.731812	33.800739
276.152161	917.341370	3925.932861	1921.171021	33.365437
276.524384	915.632385	4015.319092	1947.177124	33.278996
276.896606	914.889404	4067.628174	1937.443481	32.433834
277.268799	916.672668	4114.661621	1955.944824	32.497681
277.640930	909.465271	4123.949219	1954.310181	32.504284
278.013031	907.533447	4136.432617	1960.997437	32.626102
278.385162	907.310547	4116.073730	1957.431030	32.726643
278.757233	907.904968	4103.516602	1964.786743	33.072914
279.129272	901.737793	4085.535156	1974.669312	33.699741
279.501282	893.416016	4097.200684	1991.238647	34.266430
279.873230	895.199219	4162.141113	2022.223022	34.497822
280.245178	897.948425	4276.790039	2073.863281	34.802307
280.617126	901.589172	4452.070313	2144.079346	34.994980
280.988983	896.388000	4626.607422	2203.001221	35.027786
281.360870	908.647949	4806.791504	2265.489990	34.807392
281.732697	906.567444	4952.499512	2300.932373	34.463379
282.104492	914.889465	5077.179199	2329.984619	33.998001
282.476288	904.487122	5152.967773	2328.572998	33.519890
282.848053	912.363098	5184.026855	2329.984619	33.186638
283.219757	905.898743	5212.261230	2330.207764	33.074532
283.591461	912.288757	5168.868652	2325.823975	33.208237
283.963135	910.951355	5133.129395	2337.637939	33.790295
284.334747	920.239258	5094.343262	2366.095947	34.638733
284.706360	913.849121	5159.729492	2416.770508	35.397167
285.077942	921.799561	5298.007324	2469.970947	35.377007
285.449524	926.406311	5453.820313	2512.175049	35.025928
285.821014	924.846008	5558.214844	2510.763184	34.228168
286.192535	913.180420	5681.260254	2528.967529	33.887585
286.563995	900.325989	5760.169922	2515.815674	33.241600
286.935425	893.936035	5813.890625	2528.075928	33.214531
287.306824	898.171326	5744.343750	2483.791260	32.719017
287.678223	898.691406	5625.458984	2453.921631	32.902618
288.049561	913.106140	5498.550293	2416.324707	32.782394
288.420898	906.716125	5361.535645	2391.061768	33.319996
288.792145	913.106140	5330.551758	2412.238037	33.936623
289.163452	907.533447	5360.940918	2452.732666	34.697010
289.534668	914.666504	5490.302246	2518.490723	35.051395
289.905914	908.499329	5628.951172	2570.502686	35.208569
290.277039	915.186584	5819.240234	2640.495605	35.181286
290.648193	923.434265	6011.089844	2685.077393	34.625832
291.019318	919.198914	6128.860840	2691.838867	34.026005
291.390381	909.911133	6132.649902	2642.799072	33.179680
291.761475	900.177490	6028.031250	2595.914307	33.069134
292.132507	903.075195	5926.533203	2559.877197	32.981304
292.503510	901.217712	5821.395020	2562.700439	33.768757
292.874481	930.492981	5818.274902	2606.762451	34.295097
293.245422	937.551758	5825.036621	2659.740234	35.236702
293.616364	944.833313	5943.846191	2723.269287	35.575745
293.987213	922.245300	6109.838379	2774.389404	35.703339
294.358093	922.393982	6327.248535	2837.472412	35.432560
294.728943	906.864746	6551.939453	2889.335693	35.118595
295.099731	897.799805	6726.550781	2946.697266	35.151569
295.470490	896.908203	6901.607910	3003.018799	35.074371
295.841248	914.963684	7013.359375	3063.427002	35.229977
296.211975	909.688171	7130.980957	3115.215820	35.451275
296.582642	902.852356	7278.992188	3188.626953	35.848881
296.953308	896.685242	7435.175781	3209.357422	35.370121
297.323883	903.149597	7541.280762	3198.137695	34.572803
297.694519	910.579895	7536.673340	3122.274658	33.378563
298.065063	921.576660	7448.327637	3078.658936	33.049862
298.435608	922.468323	7245.555176	3001.904297	32.886406
298.806122	921.353821	6955.626465	2930.053467	33.288185
299.176575	913.700623	6618.812500	2823.503662	33.475296
299.547028	918.158691	6387.433594	2763.689697	33.743614
299.917450	912.883240	6240.314453	2710.786377	33.748032
300.287872	902.629456	6169.206543	2701.349854	34.153500
300.658234	894.158936	6097.058594	2700.606689	34.720020
301.028564	902.109375	6028.848145	2701.201172	35.092323
301.398865	910.431335	5983.671875	2682.922607	34.938046
301.769135	913.997864	5929.134277	2650.749756	34.630203
302.139374	909.539551	5905.580078	2632.991455	34.496357
302.509583	899.731628	5867.686035	2612.483643	34.475998
302.879791	899.657410	5801.259277	2573.251709	34.143822
303.249939	898.319885	5683.415527	2546.874268	34.451859
303.620087	902.257874	5572.778809	2528.521484	34.819748
303.990173	894.976257	5505.236816	2527.406982	35.408642
304.360260	899.657410	5487.181641	2519.085205	35.300690
304.730286	901.812195	5474.772949	2508.533936	35.135258
305.100281	906.493164	5451.813477	2502.366943	35.110260
305.470276	903.595398	5439.182129	2510.317627	35.424789
305.840179	902.257996	5457.758301	2529.561768	35.721733
306.210144	900.846191	5479.751465	2545.611328	35.920490
306.579987	906.641785	5514.971191	2547.097168	35.597614
306.949890	906.641846	5544.915527	2558.168213	35.606491
307.319702	919.124695	5629.471191	2610.774658	35.913490
307.689484	918.307373	5705.854980	2666.873291	36.523205
308.059265	923.582825	5815.153809	2733.448486	36.999683
308.429016	915.335266	5939.759277	2763.244141	36.778522
308.798737	906.270325	6100.921875	2800.246826	36.460129
309.168396	897.725525	6236.003906	2823.057617	36.066536
309.538055	894.902039	6307.854980	2845.051514	36.027458
309.907684	891.335449	6332.226563	2845.051514	35.908016
310.277313	894.084656	6350.207520	2841.335938	35.689285
310.646851	899.285828	6375.990723	2838.215576	35.403214
311.016388	916.747009	6373.018066	2844.902588	35.338337
311.385895	940.003723	6321.006348	2837.620850	35.265125
311.755371	935.099792	6255.025879	2801.435547	35.081985
312.124817	923.657043	6190.605469	2761.014893	34.884678
312.494232	912.288757	6134.655762	2723.789063	34.687340
312.863617	912.660339	6056.043457	2719.925293	35.137669
313.232971	918.084412	6013.765137	2724.234619	35.444729
313.602295	909.836731	5988.725098	2754.624756	36.322678
313.971619	916.226807	6035.164063	2784.717041	36.501526
314.340820	909.465332	6053.368652	2804.555908	36.841488
314.710083	917.787292	6120.761230	2804.556396	36.263279
315.079285	925.217468	6143.571777	2785.534912	35.649502
315.448486	932.424805	6164.153809	2748.680420	34.716164
315.817596	930.418640	6057.678223	2683.145508	34.184475
316.186707	919.421875	5878.831543	2615.827393	34.205795
316.555786	913.626221	5678.957031	2562.700928	34.605671
316.924866	906.270264	5527.825684	2533.277100	35.204742
317.293884	904.487000	5444.680176	2523.692139	35.663792
317.662872	910.208313	5422.463867	2531.196533	35.924126
318.031830	905.750183	5412.953125	2547.097412	36.416092
318.400757	910.059753	5470.240723	2578.453125	36.586121
318.769684	905.378662	5513.707520	2595.393799	36.673058
319.138550	902.555176	5573.075684	2597.771729	36.296093
319.507416	904.635559	5574.041504	2582.242432	35.927631
319.876190	900.920471	5539.862793	2553.561768	35.625389
320.244995	926.926453	5502.859375	2536.769287	35.180645
320.613770	923.954407	5431.603027	2519.531006	35.397095
320.982483	927.446594	5394.525879	2515.518799	35.550575
321.351166	909.316711	5323.938477	2522.577393	36.543579
321.719818	904.115540	5313.387207	2548.583496	37.295685
