Jaz Data File
++++++++++++++++++++++++++++++++++++
Date: Fri Jun 04 13:51:23 2021
User: jaz
Dark Spectrum Present: Yes
Reference Spectrum Present: Yes
Processed Spectrum Present: Yes
Spectrometers: JAZA3586
Integration Time (usec): 475000 (JAZA3586)
Spectra Averaged: 10 (JAZA3586)
Boxcar Smoothing: 1 (JAZA3586)
Correct for Electrical Dark: No (JAZA3586)
Strobe/Lamp Enabled: Yes (JAZA3586)
Correct for Detector Non-linearity: No (JAZA3586)
Correct for Stray Light: No (JAZA3586)
Number of Pixels in Processed Spectrum: 2048
>>>>>Begin Processed Spectral Data<<<<<
W	D	R	S	P
191.335022	0.000000	0.000000	0.000000	0.000000
191.713211	273.656952	280.864258	281.384399	107.216866
192.091385	560.985596	563.065979	562.174377	57.142437
192.469528	843.187317	849.131531	849.280090	102.499229
192.847641	854.035583	856.413147	847.794006	-262.519897
193.225739	875.731934	879.001221	867.335632	-256.823608
193.603790	896.908142	893.341614	884.350891	352.086121
193.981842	915.112305	915.409485	903.743958	-3825.405518
194.359863	913.031738	918.158691	909.836853	-62.315475
194.737854	934.430969	942.678650	921.502380	-156.754242
195.115829	926.926453	938.591980	927.892395	8.280314
195.493774	924.102966	937.254578	928.040955	29.943010
195.871704	908.796570	920.239197	921.502258	111.038216
196.249603	939.409363	938.963440	926.554932	2882.658203
196.627457	941.341125	930.641602	928.338196	121.528114
197.005310	934.802551	933.687988	928.783997	539.992310
197.383133	922.245422	918.901794	927.000793	-142.221893
197.760910	936.734375	944.090393	943.421692	90.909470
198.138687	946.319519	947.434021	945.650696	-60.010952
198.516449	936.660095	941.564026	947.285400	216.669159
198.894180	919.941956	925.068848	927.298035	143.480286
199.271866	914.889343	917.267090	924.771729	415.619781
199.649536	913.328918	915.186707	916.747009	183.987122
200.027191	923.211243	920.239258	923.731384	-17.501490
200.404816	913.997742	916.301208	911.248535	-119.350822
200.782410	928.041016	934.728271	920.759277	-108.889778
201.159988	926.703552	948.548523	927.743652	4.761280
201.537537	935.025391	962.888977	940.969666	21.333488
201.915070	923.359863	955.681580	938.146179	45.747311
202.292557	916.003967	945.279236	933.167908	58.629490
202.670029	915.260925	945.130615	935.545593	67.910538
203.047485	915.335266	943.867432	932.721985	60.937256
203.424911	909.911133	948.919983	929.824219	51.047611
203.802292	913.774902	957.019043	926.926453	30.412329
204.179688	908.499329	964.003479	927.743835	34.672195
204.557037	916.598389	964.895203	930.790222	29.384617
204.934357	917.118469	965.786804	932.053406	30.687174
205.311661	917.415588	962.145996	936.957336	43.687840
205.688934	910.356934	959.471008	928.338196	36.611221
206.066177	888.511902	937.774658	915.781067	55.354527
206.443390	887.471680	931.756104	911.397156	54.026844
206.820587	879.372742	928.189514	912.140198	67.123360
207.197769	901.292053	952.932373	926.554932	48.920841
207.574921	909.316711	958.876648	920.462097	22.488701
207.952042	921.353699	953.601135	916.449890	-15.206817
208.329147	918.381653	952.783875	922.171082	11.015070
208.706223	1058.368042	1113.203247	1084.894043	48.374035
209.083267	1064.757935	1125.983398	1100.051880	57.645859
209.460297	1063.866333	1125.834839	1092.472900	46.163074
209.837280	922.542480	963.557800	940.300964	43.297195
210.214264	911.322937	956.498962	934.356750	50.986809
210.591217	905.155762	942.009827	925.366028	54.838634
210.968124	912.883240	959.916809	936.660156	50.553078
211.345016	920.685059	967.198486	944.981995	52.236393
211.721893	916.152527	967.347107	948.697205	63.570553
212.098724	905.750183	955.235657	944.461914	78.228477
212.475555	905.155762	958.133606	940.300964	66.339432
212.852356	910.431213	967.347107	947.062500	64.360382
213.229126	914.220703	970.839355	940.301025	46.063129
213.605865	911.322937	961.923035	924.028748	25.110249
213.982590	908.796631	954.344177	916.226868	16.313145
214.359283	898.542908	950.926270	903.372498	9.219702
214.735931	893.118713	953.972656	907.607727	23.809490
215.112579	899.583008	968.313049	911.694397	17.621681
215.489197	904.338440	967.421387	919.793457	24.499517
215.865799	906.567444	965.712585	926.332031	33.417095
216.242355	899.805969	963.929199	924.920227	39.165615
216.618896	903.743958	975.743347	935.991394	44.788486
216.995407	900.325989	979.309814	931.236023	39.134640
217.371902	894.976257	968.535950	925.663330	41.717239
217.748367	890.815247	964.226379	914.369324	32.085155
218.124802	889.403564	957.241882	915.186584	38.006573
218.501236	897.725403	958.653625	917.415710	32.317219
218.877609	894.530457	955.607239	917.118469	36.982979
219.253983	894.901917	958.282227	917.490051	35.639042
219.630295	896.016418	955.533020	924.623047	48.064957
220.006592	895.273438	958.579407	925.589050	47.887447
220.382889	903.075195	971.136536	924.920349	32.096272
220.759140	901.440613	979.384216	918.827454	22.306950
221.135391	909.613953	976.560608	917.489990	11.764647
221.511581	898.319885	968.015808	911.991638	19.616287
221.887772	894.456116	972.102539	920.684998	33.779896
222.263931	898.022705	991.941345	931.458923	35.601257
222.640060	913.403320	1015.123779	943.347351	29.437569
223.016159	913.551941	1023.594421	938.071960	22.282322
223.392212	906.641785	1018.393127	927.372253	18.550531
223.768265	897.725403	1009.625305	921.650879	21.381142
224.144302	890.815247	1009.030945	918.381531	23.318632
224.520294	883.905212	1010.071106	912.288757	22.497004
224.896286	895.793640	1026.417847	922.616882	20.534664
225.272217	907.607727	1040.163696	937.625977	22.645718
225.648148	916.672607	1062.008789	955.458679	26.687141
226.024048	899.434387	1060.745605	948.474304	30.400810
226.399902	896.610901	1074.788940	935.694153	21.934944
226.775772	888.957703	1076.200684	934.802490	24.484116
227.151581	893.713135	1108.968262	942.455750	22.644114
227.527374	893.490234	1129.698608	948.028503	23.089050
227.903137	899.434387	1176.360718	958.505127	21.330851
228.278870	907.904968	1230.750366	964.003479	17.376278
228.654572	906.047363	1315.826782	967.049988	14.886698
229.030273	903.298157	1394.662109	969.873474	13.549085
229.405930	894.456238	1473.942993	969.650574	12.976024
229.781555	902.034973	1526.400757	982.207703	12.840667
230.157181	900.920471	1553.298462	976.486328	11.583140
230.532761	899.434387	1529.447266	981.613220	13.043993
230.908325	890.592468	1478.252808	964.746582	12.618533
231.283859	893.787415	1421.782715	966.158264	13.706722
231.659332	895.124939	1381.510620	951.743591	11.640691
232.034821	891.632629	1353.498413	958.430847	14.462690
232.410263	884.573914	1337.300415	944.090393	13.146233
232.785690	880.858826	1309.808350	949.886047	16.092155
233.161087	890.369568	1290.415283	951.372070	15.248883
233.536469	896.090820	1271.245239	957.984924	16.498301
233.911804	903.298157	1275.109009	957.464844	14.568345
234.287140	897.353943	1282.762085	958.059265	15.750918
234.662430	898.096985	1309.956909	968.535950	17.102652
235.037704	896.536621	1321.473877	973.737122	18.167505
235.412933	892.524353	1329.572876	973.885742	18.616100
235.788162	885.465576	1316.421387	956.201660	16.413767
236.163345	890.295227	1326.303589	971.136536	18.541229
236.538513	903.595398	1339.678101	981.687500	17.907637
236.913635	907.013367	1363.009155	1004.647034	21.411089
237.288742	908.796570	1377.498169	1003.532532	20.212425
237.663834	906.641785	1376.012085	999.966125	19.882881
238.038879	910.877014	1367.615845	996.845398	18.822220
238.413910	905.527283	1354.910034	985.551270	17.807533
238.788910	899.583008	1372.965698	984.808289	18.003464
239.163879	899.285828	1388.049194	985.922791	17.725748
239.538834	898.468506	1407.590820	991.049744	18.184479
239.913757	900.400391	1446.525391	1008.213684	19.741505
240.288651	902.034973	1487.391968	1016.015442	19.471958
240.663528	902.852356	1542.673218	1020.027771	18.313786
241.038361	895.942200	1590.821289	1024.857422	18.552181
241.413177	895.645020	1686.671875	1047.965576	19.256054
241.787979	885.985657	1796.937012	1068.993286	20.089725
242.162735	884.573914	1931.350586	1084.076782	19.058783
242.537476	871.793762	2042.433228	1083.556641	18.089506
242.912170	891.781250	2170.828369	1112.831909	17.282448
243.286865	898.319885	2226.332520	1113.723511	16.219997
243.661514	905.973145	2232.425293	1105.475830	15.040323
244.036148	902.109375	2152.178223	1091.804199	15.174750
244.410751	909.762512	2054.470215	1081.921875	15.039591
244.785339	909.242371	1965.232788	1086.305786	16.767521
245.159882	903.446777	1925.332031	1093.810425	18.628672
245.534378	900.400391	1950.743530	1125.760620	21.455868
245.908890	900.177490	2049.566162	1149.908936	21.727327
246.283356	894.753418	2210.208740	1172.199707	21.091274
246.657791	884.276672	2434.528564	1196.793945	20.159128
247.032196	891.632629	2687.826660	1239.369385	19.359642
247.406586	887.620300	2915.341797	1262.106079	18.468306
247.780960	896.610901	3066.473389	1270.725220	17.241383
248.155289	889.849365	3106.968018	1253.189697	16.387951
248.529602	896.908203	3012.306641	1231.493286	15.816646
248.903870	899.360168	2826.178467	1206.824707	15.957110
249.278122	898.319885	2611.666260	1181.784790	16.544518
249.652344	896.982422	2435.568848	1148.125610	16.322983
250.026550	903.520996	2293.353516	1131.927612	16.434111
250.400711	923.880066	2194.456543	1136.905884	16.766077
250.774857	926.332031	2123.868896	1148.422852	18.545635
251.148987	907.384827	2093.330566	1144.856323	20.023808
251.523071	884.276672	2084.042725	1140.843994	21.384779
251.897125	899.062927	2141.627197	1156.447632	20.713997
252.271164	899.954590	2196.462891	1172.274048	21.004066
252.645187	900.326111	2255.681885	1172.199707	20.059206
253.019165	874.988831	2255.607666	1154.812866	20.268015
253.393112	898.542786	2255.904785	1164.174927	19.569735
253.767044	892.227051	2177.812744	1144.633301	19.633560
254.140930	908.796570	2096.748291	1147.382568	20.083815
254.514801	903.521057	2008.551147	1129.995728	20.494888
254.888657	912.065918	1965.307007	1137.946167	21.446205
255.262466	905.081360	1944.428101	1136.014404	22.219059
255.636276	912.957520	1958.916992	1151.320679	22.788948
256.010010	919.347473	1992.353149	1169.004761	23.267099
256.383759	927.595154	2030.544922	1187.208862	23.538128
256.757446	919.421875	2072.971680	1180.075806	22.595810
257.131134	919.496277	2134.197021	1189.958130	22.265720
257.504791	912.957520	2227.149658	1206.601929	22.344101
257.878418	903.818359	2327.681396	1234.762573	23.242701
258.252014	902.257996	2479.704834	1275.480591	23.659916
258.625580	908.350769	2656.619873	1327.863892	23.995913
258.999115	900.028809	2886.735107	1384.705566	24.395994
259.372650	894.381836	3172.354492	1455.590210	24.636309
259.746124	884.350891	3488.438477	1504.184204	23.802322
260.119598	890.369446	3794.565674	1551.663696	22.770302
260.493042	894.976257	3980.991455	1551.589355	21.277054
260.866425	897.576843	4016.284912	1533.311035	20.384537
261.239838	904.858582	3859.952148	1493.410522	19.916525
261.613159	910.208313	3581.465576	1441.844238	19.902086
261.986511	902.778015	3278.607422	1393.175903	20.641125
262.359802	889.700745	3034.151367	1344.730591	21.218946
262.733063	881.230225	2881.459229	1318.576050	21.864788
263.106293	886.580078	2788.878174	1306.613403	22.080311
263.479523	907.013245	2748.383545	1315.232422	22.169313
263.852692	910.951355	2708.333984	1320.656616	22.794550
264.225861	912.363037	2661.374756	1312.780396	22.893921
264.598969	907.310547	2632.619629	1308.991089	23.281656
264.972076	904.932800	2637.746582	1306.910522	23.197977
265.345154	911.917236	2690.427490	1336.557251	23.876163
265.718201	905.527283	2737.832764	1351.046387	24.314674
266.091217	926.406250	2836.506592	1410.191406	25.327736
266.464203	931.236023	2934.437500	1431.367676	24.966618
266.837158	926.703430	3036.009033	1452.023804	24.904896
267.210114	899.583008	3100.281006	1432.853638	24.231886
267.583038	894.827637	3147.166016	1435.157104	23.989712
267.955902	898.022705	3184.391846	1442.438843	23.811384
268.328766	907.607727	3183.351563	1447.862915	23.739717
268.701569	896.462219	3169.976807	1451.206421	24.400291
269.074371	889.997986	3168.342529	1459.454102	24.994293
269.447144	888.660461	3211.214844	1477.806763	25.366308
269.819885	890.889648	3273.257813	1501.435059	25.627668
270.192596	899.285828	3384.637451	1542.375977	25.875219
270.565277	927.446594	3532.871826	1610.214233	26.205612
270.937927	927.000732	3728.064697	1666.684204	26.407232
271.310577	926.183411	3937.598389	1707.625122	25.949320
271.683136	892.970032	4148.618652	1729.692993	25.700653
272.055725	895.422058	4301.979004	1741.358521	24.832594
272.428284	896.685242	4338.461426	1736.677612	24.405783
272.800812	909.316711	4269.211426	1707.104980	23.744442
273.173279	914.443542	4137.250000	1688.083496	24.005163
273.545776	909.762451	4032.111328	1666.907227	24.249205
273.918152	915.186584	3932.471436	1653.086792	24.455769
274.290558	908.796570	3850.738525	1637.631836	24.773952
274.662964	911.917297	3785.574951	1627.601074	24.904976
275.035278	895.793640	3735.792236	1622.028320	25.571657
275.407593	900.028809	3746.268799	1636.368774	25.870621
275.779907	913.254700	3789.290283	1668.690430	26.266563
276.152161	907.682068	3868.422607	1686.300293	26.298092
276.524384	910.654114	3959.220459	1699.526245	25.876823
276.896606	893.787415	4020.668701	1703.612793	25.898821
277.268799	899.657410	4071.789063	1722.559937	25.941626
277.640930	894.456116	4081.671143	1723.674438	26.017017
278.013031	900.846191	4089.101563	1731.773438	26.062130
278.385162	901.960693	4068.296631	1722.782837	25.923407
278.757233	903.372375	4055.293701	1731.847656	26.284769
279.129272	903.446777	4067.628174	1740.466797	26.452972
279.501282	909.019531	4097.572266	1762.906250	26.779758
279.873230	908.276367	4157.385742	1788.540894	27.092487
280.245178	907.236145	4250.858887	1819.227905	27.275557
280.617126	901.291992	4405.705566	1874.954956	27.783905
280.988983	889.552185	4571.549316	1921.394165	28.023977
281.360870	902.629395	4756.562988	1983.288208	28.040411
281.732697	893.713074	4911.038574	2009.071289	27.763699
282.104492	902.332214	5047.012695	2029.875977	27.204597
282.476288	875.731873	5143.160156	2021.999878	26.860863
282.848053	887.323059	5197.847168	2022.000000	26.323412
283.219757	888.586182	5222.069824	2016.427246	26.026199
283.591461	910.728333	5151.110352	2007.362305	25.861681
283.963135	909.242371	5074.429688	2004.538696	26.296448
284.334747	918.678772	5050.132813	2029.430298	26.885242
284.706360	911.545715	5142.045410	2071.039795	27.407972
285.077942	920.982239	5291.171387	2119.336426	27.421108
285.449524	917.787292	5434.129883	2156.710693	27.432005
285.821014	912.140320	5514.525391	2157.676758	27.062845
286.192535	903.000977	5621.298340	2177.961182	27.021616
286.563995	894.010254	5703.031250	2165.255615	26.434597
286.935425	893.415833	5732.455078	2164.958252	26.276756
287.306824	887.620300	5674.424316	2124.686279	25.843252
287.678223	885.837097	5543.429199	2088.946533	25.831144
288.049561	903.595398	5421.795410	2077.875488	25.989996
288.420898	907.459167	5308.854980	2065.987061	26.321827
288.792145	914.443542	5266.576660	2097.120117	27.174639
289.163452	904.412781	5303.579590	2121.268311	27.661043
289.534668	898.988586	5425.956543	2168.599365	28.045502
289.905914	893.415955	5575.453613	2199.063232	27.886303
290.277039	901.960693	5761.953125	2251.298096	27.764189
290.648193	926.109131	5925.196777	2293.576172	27.354330
291.019318	924.994568	6055.894531	2297.068604	26.741390
291.390381	908.796570	6076.773438	2248.177490	25.916927
291.761475	884.573914	5994.966309	2191.113037	25.566315
292.132507	882.864929	5879.796875	2159.459961	25.547575
292.503510	883.459290	5781.791504	2156.859375	25.996607
292.874481	917.564270	5762.175781	2212.289307	26.725056
293.245422	918.976074	5800.367188	2254.196045	27.353268
293.616364	924.102966	5927.128418	2317.650391	27.854094
293.987213	898.171326	6074.470215	2348.486084	28.018373
294.358093	900.400391	6273.304688	2400.646729	27.922447
294.728943	889.998047	6467.160156	2440.992920	27.809752
295.099731	884.276672	6694.154785	2475.172363	27.382603
295.470490	889.626465	6846.476074	2521.165771	27.389297
295.841248	902.852356	6962.685059	2569.239502	27.498899
296.211975	901.143372	7048.430176	2614.564209	27.872801
296.582642	905.230164	7212.490723	2658.402832	27.796103
296.953308	899.137207	7351.808594	2679.950439	27.598078
297.323883	896.165100	7476.414063	2674.823486	27.030260
297.694519	891.558411	7485.033203	2630.464844	26.373142
298.065063	903.892578	7448.550781	2579.418701	25.601431
298.435608	909.390930	7233.667480	2508.831299	25.290489
298.806122	904.858582	6925.756348	2436.906250	25.445499
299.176575	903.372498	6596.224609	2363.495361	25.648354
299.547028	907.459167	6351.619629	2316.015869	25.872797
299.917450	907.830750	6208.289551	2290.084229	26.077995
300.287872	891.855530	6115.187988	2277.601318	26.529919
300.658234	884.796875	6074.396484	2274.109131	26.771088
301.028564	884.128113	6029.071777	2277.304199	27.078547
301.398865	883.607910	5962.125000	2260.511719	27.112320
301.769135	889.329285	5898.521484	2236.660400	26.897171
302.139374	892.821472	5868.354004	2210.357422	26.480297
302.509583	895.570618	5820.726563	2188.512451	26.251797
302.879791	899.731689	5747.167480	2168.747803	26.179123
303.249939	891.929871	5647.006348	2136.946289	26.182888
303.620087	896.165100	5568.022949	2117.107666	26.133986
303.990173	883.682190	5502.488281	2103.658936	26.413250
304.360260	894.753357	5449.658691	2115.770264	26.806635
304.730286	895.347717	5433.460449	2119.113525	26.966404
305.100281	900.325989	5423.949707	2116.141357	26.877026
305.470276	894.158936	5418.154297	2101.429688	26.685944
305.840179	890.815369	5428.333984	2106.259521	26.786537
306.210144	891.855469	5432.791504	2112.946533	26.890736
306.579987	900.548889	5464.296875	2139.992432	27.158459
306.949890	904.264160	5499.218750	2156.042236	27.242447
307.319702	909.093811	5587.193359	2204.190430	27.684248
307.689484	902.778015	5690.102051	2221.725586	27.550829
308.059265	904.709900	5809.655762	2269.576904	27.826342
308.429016	895.719299	5940.725098	2286.889160	27.575190
308.798737	898.022644	6076.030762	2329.018799	27.636034
309.168396	894.233215	6193.057129	2340.981689	27.303202
309.538055	903.298157	6266.246094	2350.492432	26.985054
309.907684	896.165222	6265.131348	2351.383789	27.104258
310.277313	893.193054	6285.490234	2355.767822	27.123405
310.646851	902.703796	6296.264160	2360.746094	27.033018
311.016388	918.233093	6312.908203	2363.792480	26.796040
311.385895	940.300964	6268.994629	2355.767822	26.563110
311.755371	922.616882	6215.125488	2340.089844	26.782627
312.124817	913.923523	6166.308594	2310.145752	26.582630
312.494232	897.874084	6097.801270	2285.031494	26.676479
312.863617	901.960693	6005.071777	2261.551758	26.642395
313.232971	900.177490	5965.988281	2266.975830	26.980843
313.602295	894.158997	5958.707031	2287.854980	27.518667
313.971619	888.660583	6020.378418	2321.662842	27.924416
314.340820	885.242615	6042.000000	2327.607178	27.970377
314.710083	897.576843	6110.135254	2333.031250	27.538383
315.079285	909.465271	6124.326660	2323.000244	27.105896
315.448486	917.935791	6133.837891	2306.505127	26.621843
315.817596	912.808899	6015.028809	2246.096924	26.131531
316.186707	904.338379	5845.395020	2181.750732	25.853020
316.555786	905.378662	5650.275879	2123.125977	25.664354
316.924866	901.589172	5491.490723	2100.166260	26.113354
317.293884	901.217773	5414.513672	2100.389404	26.569754
317.662872	901.886475	5388.729980	2124.240479	27.243071
318.031830	898.914368	5413.102051	2139.472412	27.481316
318.400757	912.660339	5457.312012	2156.636475	27.372307
318.769684	904.264099	5488.222168	2149.280273	27.160286
319.138550	895.199158	5511.181152	2156.190674	27.317945
319.507416	888.957764	5511.032715	2136.797607	26.997395
319.876190	888.289063	5506.351563	2121.863037	26.711937
320.244995	920.090576	5471.429688	2116.067383	26.277472
320.613770	924.251526	5391.554199	2095.188232	26.211269
320.982483	924.845947	5322.155762	2092.290283	26.549059
321.351166	897.948425	5272.595215	2080.030518	27.021198
321.719818	888.289001	5276.681641	2112.797852	27.903357
