Jaz Data File
++++++++++++++++++++++++++++++++++++
Date: Fri Jun 04 14:08:39 2021
User: jaz
Dark Spectrum Present: Yes
Reference Spectrum Present: Yes
Processed Spectrum Present: Yes
Spectrometers: JAZA3586
Integration Time (usec): 519000 (JAZA3586)
Spectra Averaged: 10 (JAZA3586)
Boxcar Smoothing: 1 (JAZA3586)
Correct for Electrical Dark: No (JAZA3586)
Strobe/Lamp Enabled: Yes (JAZA3586)
Correct for Detector Non-linearity: No (JAZA3586)
Correct for Stray Light: No (JAZA3586)
Number of Pixels in Processed Spectrum: 2048
>>>>>Begin Processed Spectral Data<<<<<
W	D	R	S	P
191.335022	0.000000	0.000000	0.000000	0.000000
191.713211	267.935577	267.712708	262.734406	2333.725830
192.091385	537.060059	543.450073	533.716431	-52.325825
192.469528	806.704590	817.404236	802.320801	-40.971348
192.847641	811.831543	822.010986	807.299072	-44.525723
193.225739	843.335876	843.707458	826.171936	-4619.152344
193.603790	875.583252	872.536865	849.874512	843.909302
193.981842	902.852356	903.000977	874.245789	-19248.048828
194.359863	902.703796	908.202148	886.208496	-300.004425
194.737854	915.038025	914.592224	906.641785	1883.406372
195.115829	908.276428	906.047363	905.601563	119.999451
195.493774	909.762512	901.737793	898.468567	140.739441
195.871704	903.000977	893.490234	883.979492	200.000000
196.249603	921.353699	915.558105	907.756348	234.615341
196.627457	928.115234	915.409485	904.189758	188.304321
197.005310	926.629211	920.090576	905.750183	319.317841
197.383133	919.570496	905.675842	890.963928	205.881836
197.760910	930.121399	927.075012	914.220703	521.952637
198.138687	927.669434	931.310242	917.192810	-287.755432
198.516449	922.096863	932.944885	906.641785	-142.469086
198.894180	908.870911	909.985413	878.406738	-2733.433838
199.271866	910.356934	900.325989	873.948547	362.960693
199.649536	907.161926	890.666687	878.406738	174.324158
200.027191	909.019531	902.778015	896.090820	207.140549
200.404816	893.936035	900.623230	879.224121	-220.001282
200.782410	896.982422	916.672668	889.775085	-36.603588
201.159988	890.072266	922.245361	892.970032	9.006799
201.537537	897.279602	942.455750	910.208313	28.618444
201.915070	892.524231	945.576416	901.291992	16.526672
202.292557	880.933044	940.746765	888.066101	11.925452
202.670029	883.607910	936.139954	893.787415	19.377705
203.047485	881.824707	928.189636	892.895813	23.878191
203.424911	885.465515	931.756104	893.638855	17.656591
203.802292	889.775085	937.031677	894.381836	9.748377
204.179688	888.140442	941.935608	898.096985	18.508249
204.557037	902.926697	940.078064	909.836853	18.600006
204.934357	898.617126	937.774658	908.796570	25.996132
205.311661	902.183594	935.842773	902.629395	1.324455
205.688934	904.115479	943.050110	897.131104	-17.938721
206.066177	896.759521	925.366150	881.304504	-54.026001
206.443390	892.078430	922.691223	881.081604	-35.922321
206.820587	870.233459	912.957520	868.301575	-4.521772
207.197769	882.790710	927.520813	884.499695	3.820658
207.574921	892.078430	931.384705	889.849365	-5.671016
207.952042	900.400391	933.390808	896.610901	-11.486638
208.329147	897.428223	944.907715	894.530457	-6.103195
208.706223	1063.123413	1120.187866	1055.767456	-12.890612
209.083267	1066.838501	1134.528198	1061.637329	-7.683846
209.460297	1066.615601	1132.224854	1064.832397	-2.717914
209.837280	889.700867	952.858093	897.651184	12.588136
210.214264	879.521301	940.969727	890.889648	18.500631
210.591217	868.598816	922.096741	882.121887	25.277750
210.968124	882.790710	940.523743	904.115540	36.936962
211.345016	894.753418	945.427734	918.455994	46.774338
211.721893	891.335449	951.594910	913.031921	36.005089
212.098724	887.991760	941.638367	904.041199	29.916969
212.475555	889.552185	947.879822	908.276428	32.101837
212.852356	897.799805	956.944763	913.626282	26.758793
213.229126	893.044434	957.390625	910.579834	27.251652
213.605865	879.149841	938.591980	887.100159	13.374885
213.982590	872.313965	927.520813	892.524231	36.608261
214.359283	868.970398	915.038025	886.208496	37.419113
214.735931	874.468750	921.130859	899.583008	53.821522
215.112579	886.431458	934.876770	899.731628	27.453989
215.489197	890.220886	951.223450	900.474670	16.808775
215.865799	887.471680	948.994385	897.205383	15.821320
216.242355	875.583252	942.752930	896.611023	31.305452
216.618896	880.933105	947.805603	905.601624	36.888885
216.995407	882.790588	955.458679	903.595398	28.629911
217.371902	880.561523	951.743469	895.719299	21.294411
217.748367	876.549133	942.901550	889.180664	19.037031
218.124802	879.744202	943.124451	886.505859	10.668399
218.501236	882.344727	942.678711	883.830872	2.463197
218.877609	876.400574	938.889343	886.728699	16.527969
219.253983	870.827881	939.112122	886.877258	23.503780
219.630295	878.703918	945.353516	896.313721	26.421469
220.006592	884.871094	950.703308	893.118652	12.528150
220.382889	887.917480	949.885986	895.347717	11.990344
220.759140	884.053711	948.845703	889.180664	7.912942
221.135391	889.032043	952.709473	886.654358	-3.733953
221.511581	879.224121	948.325500	885.762695	9.462292
221.887772	879.818542	952.560852	894.827637	20.633238
222.263931	885.242615	970.987976	910.356934	29.289419
222.640060	899.211487	989.043457	913.403320	15.798199
223.016159	896.982422	999.445862	910.431152	13.125394
223.392212	888.214661	991.718445	902.480896	13.783298
223.768265	878.778259	994.096008	900.028809	18.427822
224.144302	876.400635	991.346924	892.598633	14.091797
224.520294	868.524597	983.842468	888.511902	17.332357
224.896286	879.224121	996.250977	894.158997	12.761922
225.272217	891.261047	1019.581970	911.694519	15.923726
225.648148	909.390930	1053.984009	922.393982	8.992859
226.024048	899.211487	1054.801392	917.415710	11.700131
226.399902	890.815247	1059.185303	912.437317	12.841992
226.775772	870.233459	1063.569214	905.155762	18.063034
227.151581	876.252014	1096.856812	917.267090	18.592106
227.527374	873.651428	1114.615112	921.873840	20.012316
227.903137	880.933105	1156.670532	943.421692	22.662352
228.278870	884.425293	1201.697998	960.585632	24.004694
228.654572	880.041504	1274.217407	973.142761	23.619215
229.030273	879.669922	1355.281616	981.984680	21.512245
229.405930	871.570984	1439.317993	986.517273	20.246040
229.781555	878.926941	1512.432007	999.891785	19.094534
230.157181	874.988831	1530.041626	999.594543	19.022240
230.532761	879.149719	1493.187500	1000.486145	19.760416
230.908325	869.787598	1432.556641	996.919617	22.590443
231.283859	882.419128	1387.306274	992.758606	21.854286
231.659332	884.499573	1359.739868	986.219971	21.403994
232.034821	890.369568	1335.368530	973.142761	18.600761
232.410263	877.143616	1308.842407	964.003418	20.120464
232.785690	877.292236	1291.604248	961.774414	20.390955
233.161087	877.217957	1273.697266	956.944641	20.108662
233.536469	880.710205	1254.898682	956.053040	20.134996
233.911804	883.979492	1256.384644	954.567078	18.954514
234.287140	880.041504	1268.941895	958.653625	20.213947
234.662430	888.289063	1307.356323	970.913574	19.716290
235.037704	875.583313	1319.541992	976.040466	22.627590
235.412933	877.292236	1317.238647	971.285156	21.364630
235.788162	860.871399	1310.551392	949.068604	19.613327
236.163345	874.320129	1310.922974	950.926270	17.545956
236.538513	884.276672	1333.436646	970.839417	19.272141
236.913635	889.403564	1336.334473	994.467712	23.507917
237.288742	890.072266	1351.269409	997.291199	23.247961
237.663834	883.830872	1348.371582	989.935059	22.840666
238.038879	882.196228	1352.235229	981.315979	21.087559
238.413910	875.063171	1342.724487	976.412048	21.671427
238.788910	877.812317	1359.814087	977.972412	20.780025
239.163879	878.852600	1371.033813	983.768066	21.316431
239.538834	871.199402	1391.467163	992.758606	23.364738
239.913757	874.691589	1422.005493	1008.139343	24.382307
240.288651	875.583191	1468.816284	1024.114380	25.037577
240.663528	877.217957	1537.992188	1040.238159	24.671089
241.038361	864.883606	1596.245483	1049.302979	25.215885
241.413177	867.187012	1695.959595	1079.915771	25.667929
241.787979	864.586487	1799.686157	1107.704956	25.999205
242.162735	874.691589	1933.282593	1146.491089	25.675591
242.537476	870.010559	2040.575684	1151.840820	24.076426
242.912170	896.982422	2177.292725	1187.729004	22.709072
243.286865	902.703796	2232.945557	1198.131348	22.208563
243.661514	907.161926	2242.307373	1210.317017	22.705772
244.036148	900.920471	2153.664307	1189.140747	23.007118
244.410751	891.335449	2062.271973	1162.763306	23.180407
244.785339	886.802979	1965.901367	1147.308228	24.141010
245.159882	879.669922	1930.087524	1147.605591	25.507538
245.534378	892.449951	1957.653687	1173.314331	26.367199
245.908890	890.146545	2059.968750	1209.128296	27.267540
246.283356	883.310730	2216.747314	1236.545898	26.490587
246.657791	867.558594	2437.946533	1283.653809	26.496332
247.032196	875.508972	2692.582275	1339.975220	25.561228
247.406586	872.165344	2925.892578	1396.296753	25.520985
247.780960	873.279846	3091.513428	1415.764038	24.455683
248.155289	868.598877	3118.410889	1406.401978	23.904358
248.529602	866.444031	3021.817383	1369.324829	23.331495
248.903870	869.936218	2823.354492	1326.154907	23.354891
249.278122	867.261414	2606.167969	1271.616699	23.253424
249.652344	862.877502	2415.655762	1229.189941	23.590775
250.026550	862.877441	2276.263916	1208.459473	24.450640
250.400711	888.363281	2187.249268	1213.512085	25.032898
250.774857	894.456116	2120.154053	1199.320190	24.872690
251.148987	892.152771	2085.157471	1182.527710	24.339800
251.523071	865.923889	2081.813721	1164.323730	24.541683
251.897125	881.601746	2129.887451	1202.366699	25.696438
252.271164	876.920715	2195.273926	1217.375854	25.824272
252.645187	876.177673	2252.263916	1230.898804	25.777538
253.019165	858.419250	2267.793213	1207.716431	24.783852
253.393112	883.162109	2262.220703	1223.097046	24.649782
253.767044	885.539856	2178.407227	1202.292358	24.499998
254.140930	894.010315	2094.073975	1203.332520	25.775482
254.514801	878.926941	1991.015747	1174.428833	26.571787
254.888657	883.905212	1956.464844	1167.147217	26.408045
255.262466	876.326355	1927.041016	1152.286621	26.264055
255.636276	894.753357	1942.941772	1178.515503	27.071672
256.010010	910.282532	1968.873413	1209.202393	28.237526
256.383759	922.765442	2022.148438	1234.985474	28.399567
256.757446	900.474670	2070.965576	1235.282715	28.604069
257.131134	889.626465	2131.893555	1239.295044	28.147617
257.504791	877.515137	2215.632568	1256.533325	28.324734
257.878418	872.982727	2333.551270	1268.719116	27.094681
258.252014	875.508972	2494.342529	1316.049805	27.213474
258.625580	886.951660	2686.563477	1377.423828	27.254332
258.999115	879.967102	2915.416016	1466.141235	28.798271
259.372650	870.456360	3182.980225	1541.930054	29.036400
259.746124	864.809387	3481.454102	1601.892212	28.169006
260.119598	864.140625	3785.575439	1655.836060	27.099541
260.493042	865.775208	3991.319336	1681.247681	26.090576
260.866425	862.357239	4040.284912	1688.009277	25.980831
261.239838	869.341797	3866.639404	1637.409180	25.625330
261.613159	861.985840	3582.802734	1562.066040	25.730515
261.986511	864.289307	3283.214111	1475.354858	25.261866
262.359802	864.809387	3051.538330	1421.485352	25.457016
262.733063	865.924011	2896.989014	1391.467163	25.875252
263.106293	870.084961	2793.559326	1379.058594	26.461161
263.479523	884.573914	2749.126221	1371.182495	26.097879
263.852692	888.066162	2718.142090	1368.210327	26.236298
264.225861	871.125183	2683.591553	1359.145386	26.925753
264.598969	874.320129	2652.458740	1359.368286	27.278421
264.972076	871.645203	2641.833252	1361.151489	27.652786
265.345154	881.750305	2670.811279	1383.442383	28.042200
265.718201	867.112793	2715.021484	1399.194458	28.793720
266.091217	901.143372	2824.469482	1456.184692	28.858408
266.464203	903.372559	2931.019531	1481.076172	28.491331
266.837158	902.332214	3041.804688	1499.949097	27.932909
267.210114	871.199402	3120.639893	1484.196899	27.251110
267.583038	873.502747	3181.122314	1489.323730	26.686417
267.955902	870.604980	3213.147217	1499.206055	26.834141
268.328766	881.155945	3208.168701	1508.196655	26.946167
268.701569	877.292236	3200.143799	1510.500000	27.259932
269.074371	878.406738	3198.955078	1509.979858	27.216547
269.447144	868.598816	3230.385010	1517.038574	27.455482
269.819885	863.769226	3292.725342	1533.533813	27.574175
270.192596	864.958008	3395.708740	1580.047363	28.256018
270.565277	890.146667	3550.852783	1651.749512	28.624088
270.937927	892.747131	3735.123047	1711.191772	28.794384
271.310577	893.118652	3948.966553	1766.993164	28.596794
271.683136	870.307800	4153.447754	1782.968140	27.798399
272.055725	869.862000	4307.625977	1799.611938	27.045195
272.428284	869.638977	4343.291504	1777.320923	26.130476
272.800812	863.694824	4277.235840	1767.735962	26.483969
273.173279	868.301575	4140.890625	1744.404907	26.770954
273.545776	871.570862	4038.352783	1721.519531	26.839506
273.918152	886.654358	3939.901611	1697.668457	26.562346
274.290558	882.493408	3875.852783	1669.582031	26.294491
274.662964	883.756531	3799.544189	1660.294312	26.632179
275.035278	875.211731	3758.529053	1640.381226	26.537817
275.407593	880.190125	3768.559814	1652.492676	26.738356
275.779907	884.276672	3840.707764	1686.448853	27.133125
276.152161	878.852600	3895.394531	1709.854126	27.548151
276.524384	879.372620	3979.207764	1737.643433	27.687628
276.896606	874.914551	4027.950439	1726.572266	27.010721
277.268799	879.818542	4085.237549	1737.346313	26.752439
277.640930	872.611145	4090.439209	1732.293579	26.716232
278.013031	873.428467	4085.832764	1746.708374	27.184620
278.385162	866.889832	4072.904053	1747.451538	27.465933
278.757233	871.868164	4064.358643	1748.937500	27.472889
279.129272	867.855774	4085.906494	1743.661987	27.215425
279.501282	871.050842	4108.940430	1758.522461	27.408953
279.873230	869.490479	4170.463379	1781.407837	27.625715
280.245178	864.958008	4265.570801	1819.005005	28.055149
280.617126	872.016785	4425.172852	1869.010742	28.059391
280.988983	868.004395	4597.332520	1917.381836	28.138512
281.360870	893.193054	4778.631348	1993.021973	28.306431
281.732697	883.830872	4945.663574	2017.541870	27.911316
282.104492	887.100281	5074.355957	2043.547729	27.618267
282.476288	873.502747	5156.831543	2035.820190	27.135845
282.848053	878.555420	5181.648926	2046.296875	27.137253
283.219757	884.351013	5183.135254	2043.919312	26.974333
283.591461	881.601807	5136.992676	2040.873047	27.242416
283.963135	883.087891	5087.804688	2038.049438	27.468237
284.334747	880.710144	5098.132324	2054.841797	27.840029
284.706360	889.552063	5171.543457	2082.779541	27.866184
285.077942	902.034973	5327.802246	2136.203125	27.885973
285.449524	901.366272	5445.943848	2172.462891	27.969522
285.821014	886.654358	5542.166016	2180.636230	27.794622
286.192535	869.564758	5653.693848	2195.422607	27.713675
286.563995	868.598816	5747.167480	2197.280029	27.235060
286.935425	878.704041	5800.293457	2208.276855	27.015110
287.306824	877.440918	5718.857422	2175.137939	26.804077
287.678223	869.193298	5577.756348	2147.274414	27.143761
288.049561	881.601807	5462.587402	2136.871826	27.401747
288.420898	884.722473	5336.421387	2115.026855	27.636742
288.792145	893.861633	5298.526855	2123.274658	27.911613
289.163452	875.731934	5309.598145	2118.667725	28.032776
289.534668	876.846436	5454.265625	2169.045166	28.229855
289.905914	871.570862	5621.372559	2193.787842	27.837311
290.277039	885.837097	5826.002441	2258.059814	27.776855
290.648193	902.926697	6017.480469	2306.059326	27.434116
291.019318	907.459167	6136.587891	2337.266357	27.343122
291.390381	881.676086	6108.353027	2315.272705	27.428455
291.761475	862.580261	6010.421387	2276.041016	27.457348
292.132507	862.283142	5892.057129	2252.932861	27.648354
292.503510	872.016785	5806.534668	2243.718994	27.798098
292.874481	909.465332	5798.955566	2301.155518	28.462889
293.245422	912.734680	5834.175293	2338.901123	28.978640
293.616364	917.787292	5989.542480	2414.838623	29.517418
293.987213	881.676086	6126.482422	2446.045410	29.827021
294.358093	875.806152	6340.845703	2511.877686	29.937048
294.728943	862.357361	6537.450684	2549.103271	29.721905
295.099731	860.202576	6759.987793	2597.771729	29.451397
295.470490	860.128235	6917.806152	2653.870361	29.611053
295.841248	871.422180	7023.242188	2704.693115	29.800467
296.211975	869.787598	7114.931152	2743.999268	30.010706
296.582642	870.530579	7278.471191	2788.878174	29.937040
296.953308	864.363525	7447.732910	2811.243408	29.572699
297.323883	864.214905	7554.729004	2813.918701	29.141315
297.694519	867.632813	7561.192871	2764.953125	28.345459
298.065063	874.245789	7480.798340	2729.064697	28.075441
298.435608	874.394348	7270.520996	2655.059082	27.839737
298.806122	871.347900	6948.642090	2571.765869	27.979855
299.176575	877.366516	6616.136719	2469.450928	27.742607
299.547028	875.657532	6392.040527	2404.807617	27.720160
299.917450	867.484314	6259.707031	2370.331055	27.870634
300.287872	857.899231	6173.070313	2355.916504	28.183804
300.658234	855.149963	6097.652832	2342.541992	28.371794
301.028564	862.728821	6033.306152	2338.157959	28.535097
301.398865	858.345032	5968.812012	2320.399658	28.609024
301.769135	867.558594	5911.450684	2308.882568	28.575630
302.139374	873.874329	5877.642090	2289.341064	28.288021
302.509583	869.193176	5839.673828	2280.350342	28.390760
302.879791	869.861877	5772.207031	2264.003906	28.438269
303.249939	863.471863	5682.449219	2245.056641	28.669664
303.620087	875.508972	5592.691406	2229.453369	28.702394
303.990173	871.719482	5519.429199	2215.558594	28.914005
304.360260	880.561523	5475.664551	2234.431396	29.463320
304.730286	886.208496	5456.123047	2257.539551	30.007805
305.100281	897.354004	5459.986816	2270.319580	30.091520
305.470276	886.282776	5458.724121	2273.142822	30.330845
305.840179	874.022888	5460.581543	2257.985352	30.174311
306.210144	860.797058	5468.680176	2258.505615	30.332983
306.579987	881.750488	5496.767090	2263.632568	29.943167
306.949890	890.815369	5536.221191	2276.561279	29.830460
307.319702	900.326111	5617.062500	2316.238770	30.018906
307.689484	877.812317	5704.368652	2334.145752	30.173346
308.059265	875.508972	5839.971191	2380.139160	30.308018
308.429016	860.054016	5948.229980	2396.188477	30.190281
308.798737	863.917725	6082.568848	2416.250244	29.745855
309.168396	860.202576	6199.150391	2425.166504	29.312216
309.538055	872.462585	6285.712891	2424.720703	28.675158
309.907684	875.434631	6297.155762	2420.410889	28.496048
310.277313	876.846375	6322.566895	2405.253174	28.066198
310.646851	873.131287	6336.981934	2401.909912	27.979876
311.016388	887.323059	6370.492676	2400.275146	27.592657
311.385895	913.700500	6334.529785	2405.476318	27.519331
311.755371	910.505554	6279.322754	2368.919189	27.164522
312.124817	894.456238	6213.639160	2329.761719	26.983568
312.494232	875.880432	6138.296387	2281.985107	26.719757
312.863617	873.279846	6075.064453	2265.341309	26.761229
313.232971	876.697754	6022.087402	2258.282471	26.850925
313.602295	861.911560	6013.021973	2262.443604	27.188934
313.971619	867.409973	6070.234863	2287.929443	27.302853
314.340820	864.289246	6100.625000	2298.851807	27.396303
314.710083	878.852600	6168.463379	2324.932129	27.338110
315.079285	885.539856	6170.543457	2319.582275	27.134182
315.448486	904.041199	6187.484375	2339.198242	27.163288
315.817596	912.065918	6070.086426	2291.495850	26.743397
316.186707	907.904968	5901.642090	2249.440674	26.864361
316.555786	890.072266	5695.525879	2188.140869	27.012405
316.924866	878.481018	5517.720215	2157.230713	27.563782
317.293884	881.304504	5430.042969	2144.376465	27.767525
317.662872	889.552185	5398.835449	2151.212158	27.979168
318.031830	875.583252	5429.448242	2170.753906	28.441128
318.400757	878.852539	5474.996094	2201.292725	28.772821
318.769684	867.112793	5520.470215	2210.357422	28.866138
319.138550	864.586426	5529.832031	2216.450195	28.977333
319.507416	859.905334	5513.335938	2209.985840	29.012587
319.876190	855.521484	5490.599609	2204.264648	29.098606
320.244995	887.025879	5484.209473	2211.620605	28.813179
320.613770	887.694580	5437.770508	2195.794189	28.748960
320.982483	898.171204	5387.839355	2173.651855	28.409245
321.351166	876.623474	5320.148926	2129.441650	28.194239
321.719818	873.651367	5312.198730	2133.677002	28.388243
