Jaz Data File
++++++++++++++++++++++++++++++++++++
Date: Fri Jun 04 14:04:05 2021
User: jaz
Dark Spectrum Present: Yes
Reference Spectrum Present: Yes
Processed Spectrum Present: Yes
Spectrometers: JAZA3586
Integration Time (usec): 519000 (JAZA3586)
Spectra Averaged: 10 (JAZA3586)
Boxcar Smoothing: 1 (JAZA3586)
Correct for Electrical Dark: No (JAZA3586)
Strobe/Lamp Enabled: Yes (JAZA3586)
Correct for Detector Non-linearity: No (JAZA3586)
Correct for Stray Light: No (JAZA3586)
Number of Pixels in Processed Spectrum: 2048
>>>>>Begin Processed Spectral Data<<<<<
W	D	R	S	P
191.335022	0.000000	0.000000	0.000000	0.000000
191.713211	267.935577	267.712708	268.901550	-433.424622
192.091385	537.060059	543.450073	537.208679	2.325826
192.469528	806.704590	817.404236	810.939880	39.583466
192.847641	811.831543	822.010986	816.066711	41.605110
193.225739	843.335876	843.707458	846.307922	799.835754
193.603790	875.583252	872.536865	868.004395	248.781860
193.981842	902.852356	903.000977	887.471680	-10348.953125
194.359863	902.703796	908.202148	894.158997	-155.406555
194.737854	915.038025	914.592224	917.044250	-450.027374
195.115829	908.276428	906.047363	923.062683	-663.338928
195.493774	909.762512	901.737793	918.307373	-106.481743
195.871704	903.000977	893.490234	898.691406	45.312660
196.249603	921.353699	915.558105	913.997742	126.923279
196.627457	928.115234	915.409485	908.796570	152.046631
197.005310	926.629211	920.090576	911.025635	238.636597
197.383133	919.570496	905.675842	891.038269	205.346802
197.760910	930.121399	927.075012	921.428040	285.366241
198.138687	927.669434	931.310242	922.988464	-128.569519
198.516449	922.096863	932.944885	922.096741	-0.001125
198.894180	908.870911	909.985413	887.471680	-1920.071167
199.271866	910.356934	900.325989	882.864929	274.071930
199.649536	907.161926	890.666687	881.601746	154.954895
200.027191	909.019531	902.778015	892.821472	259.521240
200.404816	893.936035	900.623230	886.431458	-112.223106
200.782410	896.982422	916.672668	903.372375	32.452381
201.159988	890.072266	922.245361	909.316650	59.815147
201.537537	897.279602	942.455750	917.787170	45.394680
201.915070	892.524231	945.576416	910.728455	34.313805
202.292557	880.933044	940.746765	903.000977	36.894432
202.670029	883.607910	936.139954	912.585938	55.162575
203.047485	881.824707	928.189636	906.864746	54.006420
203.424911	885.465515	931.756104	904.858582	41.894188
203.802292	889.775085	937.031677	907.607727	37.735775
204.179688	888.140442	941.935608	914.443604	48.895027
204.557037	902.926697	940.078064	921.502380	50.000000
204.934357	898.617126	937.774658	910.951355	31.498993
205.311661	902.183594	935.842773	904.709961	7.505730
205.688934	904.115479	943.050110	897.948425	-15.839506
206.066177	896.759521	925.366150	891.038269	-19.999744
206.443390	892.078430	922.691223	887.620300	-14.562963
206.820587	870.233459	912.957520	881.973328	27.478354
207.197769	882.790710	927.520813	902.703796	44.518311
207.574921	892.078430	931.384705	905.898743	35.160576
207.952042	900.400391	933.390808	910.802795	31.531595
208.329147	897.428223	944.907715	892.004150	-11.424032
208.706223	1063.123413	1120.187866	1073.525757	18.229113
209.083267	1066.838501	1134.528198	1083.407959	24.478552
209.460297	1066.615601	1132.224854	1095.370728	43.827854
209.837280	889.700867	952.858093	918.233093	45.176502
210.214264	879.521301	940.969727	908.870911	47.762997
210.591217	868.598816	922.096741	897.799805	54.583405
210.968124	882.790710	940.523743	906.195984	40.540524
211.345016	894.753418	945.427734	918.901672	47.653835
211.721893	891.335449	951.594910	918.084473	44.389748
212.098724	887.991760	941.638367	910.356934	41.689819
212.475555	889.552185	947.879822	905.824524	27.898163
212.852356	897.799805	956.944763	911.174316	22.613106
213.229126	893.044434	957.390625	919.124695	40.531166
213.605865	879.149841	938.591980	907.236145	47.249821
213.982590	872.313965	927.520813	906.790344	62.449463
214.359283	868.970398	915.038025	893.861755	54.032211
214.735931	874.468750	921.130859	894.604736	43.152756
215.112579	886.431458	934.876770	899.508789	26.994007
215.489197	890.220886	951.223450	907.904968	28.989080
215.865799	887.471680	948.994385	912.363098	40.458916
216.242355	875.583252	942.752930	897.874023	33.185764
216.618896	880.933105	947.805603	895.942200	22.444345
216.995407	882.790588	955.458679	890.666687	10.838455
217.371902	880.561523	951.743469	889.923645	13.152382
217.748367	876.549133	942.901550	883.459290	10.414325
218.124802	879.744202	943.124451	885.614075	9.261360
218.501236	882.344727	942.678711	890.220947	13.054369
218.877609	876.400574	938.889343	893.936035	28.061781
219.253983	870.827881	939.112122	893.044434	32.535404
219.630295	878.703918	945.353516	896.685242	26.978893
220.006592	884.871094	950.703308	890.518066	8.577826
220.382889	887.917480	949.885986	893.713135	9.352580
220.759140	884.053711	948.845703	895.347839	17.431364
221.135391	889.032043	952.709473	892.524231	5.484184
221.511581	879.224121	948.325500	889.329285	14.623678
221.887772	879.818542	952.560852	900.028870	27.783455
222.263931	885.242615	970.987976	917.044250	37.088463
222.640060	899.211487	989.043457	924.920227	28.618698
223.016159	896.982422	999.445862	909.391052	12.110300
223.392212	888.214661	991.718445	907.533508	18.664871
223.768265	878.778259	994.096008	902.629456	20.683023
224.144302	876.400635	991.346924	900.623291	21.073021
224.520294	868.524597	983.842468	892.821472	21.069479
224.896286	879.224121	996.250977	908.202148	24.761862
225.272217	891.261047	1019.581970	924.251648	25.709448
225.648148	909.390930	1053.984009	945.130615	24.717424
226.024048	899.211487	1054.801392	931.161804	20.534956
226.399902	890.815247	1059.185303	923.657043	19.505724
226.775772	870.233459	1063.569214	902.852356	16.871632
227.151581	876.252014	1096.856812	913.551941	16.908031
227.527374	873.651428	1114.615112	917.490051	18.193041
227.903137	880.933105	1156.670532	932.499207	18.701160
228.278870	884.425293	1201.697998	949.811707	20.608900
228.654572	880.041504	1274.217407	958.133545	19.811470
229.030273	879.669922	1355.281616	966.232483	18.200258
229.405930	871.570984	1439.317993	961.848633	15.901034
229.781555	878.926941	1512.432007	977.749451	15.599324
230.157181	874.988831	1530.041626	960.957031	13.123858
230.532761	879.149719	1493.187500	959.842590	13.141353
230.908325	869.787598	1432.556641	943.793213	13.150264
231.283859	882.419128	1387.306274	966.009766	16.556301
231.659332	884.499573	1359.739868	960.734192	16.041279
232.034821	890.369568	1335.368530	957.167664	15.010843
232.410263	877.143616	1308.842407	944.164734	15.524972
232.785690	877.292236	1291.604248	936.808777	14.365149
233.161087	877.217957	1273.697266	945.799316	17.297588
233.536469	880.710205	1254.898682	948.548645	18.129484
233.911804	883.979492	1256.384644	959.099548	20.171595
234.287140	880.041504	1268.941895	951.000549	18.246073
234.662430	888.289063	1307.356323	960.808411	17.304943
235.037704	875.583313	1319.541992	964.672180	20.066927
235.412933	877.292236	1317.238647	964.003601	19.709528
235.788162	860.871399	1310.551392	949.588867	19.729023
236.163345	874.320129	1310.922974	953.229553	18.073502
236.538513	884.276672	1333.436646	966.158264	18.229940
236.913635	889.403564	1336.334473	970.542053	18.154593
237.288742	890.072266	1351.269409	972.919739	17.963570
237.663834	883.830872	1348.371582	972.845520	19.161861
238.038879	882.196228	1352.235229	979.681396	20.739803
238.413910	875.063171	1342.724487	978.195313	22.052742
238.788910	877.812317	1359.814087	982.802063	21.782024
239.163879	878.852600	1371.033813	983.842285	21.331511
239.538834	871.199402	1391.467163	986.517273	22.165100
239.913757	874.691589	1422.005493	996.919617	22.332344
240.288651	875.583191	1468.816284	1012.746094	23.121250
240.663528	877.217957	1537.992188	1029.910034	23.108055
241.038361	864.883606	1596.245483	1036.077148	23.407501
241.413177	867.187012	1695.959595	1052.498047	22.359697
241.787979	864.586487	1799.686157	1066.095337	21.549452
242.162735	874.691589	1933.282593	1093.661743	20.685057
242.537476	870.010559	2040.575684	1104.807251	20.058403
242.912170	896.982422	2177.292725	1142.552979	19.180550
243.286865	902.703796	2232.945557	1154.664307	18.940958
243.661514	907.161926	2242.307373	1160.757202	18.993830
244.036148	900.920471	2153.664307	1136.311401	18.790028
244.410751	891.335449	2062.271973	1114.169312	19.030396
244.785339	886.802979	1965.901367	1101.760620	19.920115
245.159882	879.669922	1930.087524	1101.909302	21.157240
245.534378	892.449951	1957.653687	1124.943237	21.826180
245.908890	890.146545	2059.968750	1158.007813	22.897604
246.283356	883.310730	2216.747314	1203.332520	23.999777
246.657791	867.558594	2437.946533	1240.632446	23.756796
247.032196	875.508972	2692.582275	1292.198608	22.931911
247.406586	872.165344	2925.892578	1314.043579	21.515915
247.780960	873.279846	3091.513428	1324.817505	20.355730
248.155289	868.598877	3118.410889	1301.486450	19.241055
248.529602	866.444031	3021.817383	1276.595093	19.029236
248.903870	869.936218	2823.354492	1244.199097	19.159384
249.278122	867.261414	2606.167969	1206.081787	19.484680
249.652344	862.877502	2415.655762	1174.800293	20.088043
250.026550	862.877441	2276.263916	1162.763184	21.217533
250.400711	888.363281	2187.249268	1169.301880	21.629196
250.774857	894.456116	2120.154053	1170.639282	22.532726
251.148987	892.152771	2085.157471	1167.295776	23.063028
251.523071	865.923889	2081.813721	1167.667236	24.816668
251.897125	881.601746	2129.887451	1190.849609	24.773806
252.271164	876.920715	2195.273926	1195.605103	24.172913
252.645187	876.177673	2252.263916	1194.862061	23.158752
253.019165	858.419250	2267.793213	1175.840454	22.522141
253.393112	883.162109	2262.220703	1199.468872	22.936426
253.767044	885.539856	2178.407227	1189.437988	23.505745
254.140930	894.010315	2094.073975	1182.676392	24.054230
254.514801	878.926941	1991.015747	1156.819092	24.988304
254.888657	883.905212	1956.464844	1148.571533	24.676142
255.262466	876.326355	1927.041016	1146.193726	25.684174
255.636276	894.753357	1942.941772	1159.791138	25.285316
256.010010	910.282532	1968.873413	1187.283081	26.166914
256.383759	922.765442	2022.148438	1204.224121	25.601511
256.757446	900.474670	2070.965576	1210.317017	26.471144
257.131134	889.626465	2131.893555	1224.731689	26.975296
257.504791	877.515137	2215.632568	1254.824341	28.197018
257.878418	872.982727	2333.551270	1285.511353	28.244385
258.252014	875.508972	2494.342529	1335.740112	28.429800
258.625580	886.951660	2686.563477	1400.829224	28.554911
258.999115	879.967102	2915.416016	1473.125610	29.141409
259.372650	870.456360	3182.980225	1541.707031	29.026756
259.746124	864.809387	3481.454102	1612.591919	28.577915
260.119598	864.140625	3785.575439	1658.956909	27.206367
260.493042	865.775208	3991.319336	1671.291138	25.772022
260.866425	862.357239	4040.284912	1645.656616	24.648117
261.239838	869.341797	3866.639404	1596.393921	24.256922
261.613159	861.985840	3582.802734	1534.053833	24.700964
261.986511	864.289307	3283.214111	1467.627319	24.942404
262.359802	864.809387	3051.538330	1416.878540	25.246346
262.733063	865.924011	2896.989014	1392.210083	25.911829
263.106293	870.084961	2793.559326	1372.965698	26.144396
263.479523	884.573914	2749.126221	1376.829224	26.400724
263.852692	888.066162	2718.142090	1359.739746	25.773443
264.225861	871.125183	2683.591553	1365.683960	27.286509
264.598969	874.320129	2652.458740	1368.730469	27.804937
264.972076	871.645203	2641.833252	1383.516602	28.916218
265.345154	881.750305	2670.811279	1404.470093	29.217548
265.718201	867.112793	2715.021484	1429.584473	30.438284
266.091217	901.143372	2824.469482	1502.698242	31.276800
266.464203	903.372559	2931.019531	1533.385376	31.071129
266.837158	902.332214	3041.804688	1552.035156	30.367437
267.210114	871.199402	3120.639893	1530.933228	29.328798
267.583038	873.502747	3181.122314	1538.289185	28.808319
267.955902	870.604980	3213.147217	1551.069336	29.048115
268.328766	881.155945	3208.168701	1558.128052	29.091896
268.701569	877.292236	3200.143799	1556.419067	29.236773
269.074371	878.406738	3198.955078	1551.737915	29.016037
269.447144	868.598816	3230.385010	1573.434204	29.843319
269.819885	863.769226	3292.725342	1612.889038	30.841225
270.192596	864.958008	3395.708740	1681.767944	32.275402
270.565277	890.146667	3550.852783	1773.828979	33.212322
270.937927	892.747131	3735.123047	1834.757324	33.141647
271.310577	893.118652	3948.966553	1882.310913	32.370468
271.683136	870.307800	4153.447754	1903.487183	31.469248
272.055725	869.862000	4307.625977	1915.747070	30.423410
272.428284	869.638977	4343.291504	1896.131226	29.550802
272.800812	863.694824	4277.235840	1859.351196	29.167845
273.173279	868.301575	4140.890625	1832.082153	29.450094
273.545776	871.570862	4038.352783	1815.289673	29.800562
273.918152	886.654358	3939.901611	1796.342407	29.794117
274.290558	882.493408	3875.852783	1775.314819	29.826736
274.662964	883.756531	3799.544189	1763.203491	30.161558
275.035278	875.211731	3758.529053	1763.277710	30.800146
275.407593	880.190125	3768.559814	1786.757446	31.386818
275.779907	884.276672	3840.707764	1823.463257	31.767578
276.152161	878.852600	3895.394531	1851.326660	32.238041
276.524384	879.372620	3979.207764	1876.069336	32.153217
276.896606	874.914551	4027.950439	1891.152832	32.230469
277.268799	879.818542	4085.237549	1895.165161	31.675941
277.640930	872.611145	4090.439209	1893.233398	31.717737
278.013031	873.428467	4085.832764	1894.496460	31.785164
278.385162	866.889832	4072.904053	1891.227173	31.950495
278.757233	871.868164	4064.358643	1890.261230	31.899643
279.129272	867.855774	4085.906494	1893.530640	31.872549
279.501282	871.050842	4108.940430	1912.106323	32.152283
279.873230	869.490479	4170.463379	1949.703491	32.724079
280.245178	864.958008	4265.570801	1995.696899	33.251034
280.617126	872.016785	4425.172852	2070.073975	33.718113
280.988983	868.004395	4597.332520	2119.336670	33.553825
281.360870	893.193054	4778.631348	2204.710205	33.754677
281.732697	883.830872	4945.663574	2233.242432	33.221741
282.104492	887.100281	5074.355957	2265.341309	32.915134
282.476288	873.502747	5156.831543	2249.812012	32.131771
282.848053	878.555420	5181.648926	2254.344482	31.972092
283.219757	884.351013	5183.135254	2255.087646	31.886610
283.591461	881.601807	5136.992676	2236.660645	31.843348
283.963135	883.087891	5087.804688	2245.725586	32.407360
284.334747	880.710144	5098.132324	2284.808838	33.292816
284.706360	889.552063	5171.543457	2355.470703	34.234509
285.077942	902.034973	5327.802246	2414.838623	34.181728
285.449524	901.366272	5445.943848	2446.714355	34.004219
285.821014	886.654358	5542.166016	2439.060791	33.345562
286.192535	869.564758	5653.693848	2440.026855	32.826500
286.563995	868.598816	5747.167480	2432.373779	32.053967
286.935425	878.704041	5800.293457	2422.045654	31.358601
287.306824	877.440918	5718.857422	2382.888184	31.095182
287.678223	869.193298	5577.756348	2329.093018	31.005205
288.049561	881.601807	5462.587402	2329.687500	31.610790
288.420898	884.722473	5336.421387	2319.656982	32.233418
288.792145	893.861633	5298.526855	2348.188965	33.017887
289.163452	875.731934	5309.598145	2361.712158	33.514324
289.534668	876.846436	5454.265625	2412.386719	33.545986
289.905914	871.570862	5621.372559	2466.850342	33.586235
290.277039	885.837097	5826.002441	2539.146729	33.466682
290.648193	902.926697	6017.480469	2597.845947	33.139141
291.019318	907.459167	6136.587891	2599.183350	32.351929
291.390381	881.676086	6108.353027	2538.923828	31.707485
291.761475	862.580261	6010.421387	2484.237061	31.501684
292.132507	862.283142	5892.057129	2452.732910	31.620699
292.503510	872.016785	5806.534668	2462.466553	32.231106
292.874481	909.465332	5798.955566	2509.351318	32.720917
293.245422	912.734680	5834.175293	2573.251709	33.740471
293.616364	917.787292	5989.542480	2636.929443	33.896393
293.987213	881.676086	6126.482422	2674.303711	34.179104
294.358093	875.806152	6340.845703	2714.427002	33.643322
294.728943	862.357361	6537.450684	2776.246826	33.724369
295.099731	860.202576	6759.987793	2818.896484	33.199409
295.470490	860.128235	6917.806152	2879.750732	33.339882
295.841248	871.422180	7023.242188	2914.895752	33.217384
296.211975	869.787598	7114.931152	2971.960205	33.660919
296.582642	870.530579	7278.471191	3034.746094	33.773964
296.953308	864.363525	7447.732910	3064.838867	33.424759
297.323883	864.214905	7554.729004	3062.089600	32.850609
297.694519	867.632813	7561.192871	3002.498779	31.894327
298.065063	874.245789	7480.798340	2947.440430	31.380882
298.435608	874.394348	7270.520996	2863.255127	31.094770
298.806122	871.347900	6948.642090	2768.742432	31.221043
299.176575	877.366516	6616.136719	2678.835938	31.391212
299.547028	875.657532	6392.040527	2624.446289	31.701731
299.917450	867.484314	6259.707031	2594.948242	32.036213
300.287872	857.899231	6173.070313	2581.350830	32.425140
300.658234	855.149963	6097.652832	2572.137451	32.751293
301.028564	862.728821	6033.306152	2572.137207	33.060303
301.398865	858.345032	5968.812012	2539.444092	32.895218
301.769135	867.558594	5911.450684	2519.307861	32.747513
302.139374	873.874329	5877.642090	2489.958496	32.297348
302.509583	869.193176	5839.673828	2484.013916	32.488224
302.879791	869.861877	5772.207031	2446.342773	32.157688
303.249939	863.471863	5682.449219	2414.987061	32.195942
303.620087	875.508972	5592.691406	2391.953369	32.147247
303.990173	871.719482	5519.429199	2381.699219	32.488682
304.360260	880.561523	5475.664551	2381.625244	32.666595
304.730286	886.208496	5456.123047	2379.321777	32.672672
305.100281	897.354004	5459.986816	2384.597412	32.596169
305.470276	886.282776	5458.724121	2378.132813	32.626991
305.840179	874.022888	5460.581543	2387.569336	32.999607
306.210144	860.797058	5468.680176	2378.429932	32.935574
306.579987	881.750488	5496.767090	2411.866211	33.155151
306.949890	890.815369	5536.221191	2430.070557	33.134998
307.319702	900.326111	5617.062500	2498.057373	33.873661
307.689484	877.812317	5704.368652	2529.561768	34.222115
308.059265	875.508972	5839.971191	2582.539795	34.385006
308.429016	860.054016	5948.229980	2606.465088	34.322933
308.798737	863.917725	6082.568848	2651.492432	34.253574
309.168396	860.202576	6199.150391	2676.161133	34.013416
309.538055	872.462585	6285.712891	2682.699951	33.440857
309.907684	875.434631	6297.155762	2666.353271	33.032291
310.277313	876.846375	6322.566895	2665.610107	32.847141
310.646851	873.131287	6336.981934	2661.895020	32.738152
311.016388	887.323059	6370.492676	2680.916748	32.710896
311.385895	913.700500	6334.529785	2670.959961	32.416805
311.755371	910.505554	6279.322754	2652.012695	32.437443
312.124817	894.456238	6213.639160	2600.223633	32.068218
312.494232	875.880432	6138.296387	2560.768799	32.017395
312.863617	873.279846	6075.064453	2548.583252	32.206322
313.232971	876.697754	6022.087402	2567.307617	32.856789
313.602295	861.911560	6013.021973	2591.530273	33.577587
313.971619	867.409973	6070.234863	2621.919922	33.722260
314.340820	864.289246	6100.625000	2627.938477	33.680977
314.710083	878.852600	6168.463379	2653.424561	33.548252
315.079285	885.539856	6170.543457	2627.418701	32.958897
315.448486	904.041199	6187.484375	2605.276367	32.199364
315.817596	912.065918	6070.086426	2525.549561	31.281063
316.186707	907.904968	5901.642090	2472.051514	31.322163
316.555786	890.072266	5695.525879	2420.039795	31.838150
316.924866	878.481018	5517.720215	2383.111084	32.432690
317.293884	881.304504	5430.042969	2377.984131	32.903183
317.662872	889.552185	5398.835449	2384.968750	33.163063
318.031830	875.583252	5429.448242	2397.971680	33.430687
318.400757	878.852539	5474.996094	2417.810547	33.483681
318.769684	867.112793	5520.470215	2422.343018	33.421680
319.138550	864.586426	5529.832031	2426.206787	33.473488
319.507416	859.905334	5513.335938	2414.764404	33.413177
319.876190	855.521484	5490.599609	2390.987305	33.127075
320.244995	887.025879	5484.209473	2379.321777	32.461090
320.613770	887.694580	5437.770508	2350.492432	32.148865
320.982483	898.171204	5387.839355	2340.981445	32.136238
321.351166	876.623474	5320.148926	2347.520264	33.102020
321.719818	873.651367	5312.198730	2374.343506	33.810432
