Jaz Data File
++++++++++++++++++++++++++++++++++++
Date: Fri Jun 04 11:43:24 2021
User: jaz
Dark Spectrum Present: Yes
Reference Spectrum Present: Yes
Processed Spectrum Present: Yes
Spectrometers: JAZA3586
Integration Time (usec): 32700 (JAZA3586)
Spectra Averaged: 10 (JAZA3586)
Boxcar Smoothing: 1 (JAZA3586)
Correct for Electrical Dark: No (JAZA3586)
Strobe/Lamp Enabled: Yes (JAZA3586)
Correct for Detector Non-linearity: No (JAZA3586)
Correct for Stray Light: No (JAZA3586)
Number of Pixels in Processed Spectrum: 2048
>>>>>Begin Processed Spectral Data<<<<<
W	D	R	S	P
191.335022	0.000000	0.000000	0.000000	0.000000
191.713211	403.835297	413.123077	409.259369	58.400089
192.091385	811.311340	818.147278	808.487854	-41.303570
192.469528	1227.035034	1231.419067	1215.369629	-266.088440
192.847641	1239.889526	1226.886597	1218.861816	161.715164
193.225739	1250.737671	1243.307495	1231.567505	258.004211
193.603790	1255.344482	1251.777954	1239.146484	454.167084
193.981842	1258.465210	1273.177124	1240.483887	-122.222870
194.359863	1257.573608	1281.276123	1244.496216	-55.173019
194.737854	1264.186523	1280.681763	1243.827515	-123.423546
195.115829	1271.096680	1273.622925	1245.462280	-1014.723389
195.493774	1282.242065	1270.576538	1239.592407	365.604218
195.871704	1281.424683	1272.656982	1241.821411	451.695099
196.249603	1276.817993	1278.749878	1243.976196	-1699.987305
196.627457	1269.982178	1276.297852	1252.446655	-277.650848
197.005310	1269.090454	1275.109009	1252.446777	-276.539429
197.383133	1273.994507	1267.158691	1260.991577	190.217682
197.760910	1276.520630	1259.802612	1264.780884	70.222115
198.138687	1275.480469	1264.335083	1262.328857	118.000504
198.516449	1270.353516	1266.044067	1251.109253	446.559784
198.894180	1268.644653	1274.291626	1247.542603	-373.687866
199.271866	1269.759155	1272.582642	1255.938965	-489.472534
199.649536	1270.204956	1278.972778	1246.948242	-265.250732
200.027191	1267.084351	1277.783813	1241.969849	-234.726761
200.404816	1259.951294	1277.189453	1236.100098	-138.362778
200.782410	1252.892456	1284.619751	1245.462280	-23.418877
201.159988	1255.641724	1290.563843	1247.617065	-22.978725
201.537537	1262.403198	1298.142822	1245.387817	-47.609287
201.915070	1270.279419	1294.130493	1242.564453	-116.200073
202.292557	1269.536377	1303.121094	1245.387817	-71.903419
202.670029	1261.734619	1310.848633	1252.075073	-19.667597
203.047485	1254.081421	1316.941406	1253.486816	-0.945919
203.424911	1256.979126	1313.151978	1250.886230	-10.846691
203.802292	1257.127563	1309.511230	1241.969849	-28.935957
204.179688	1262.031738	1306.316284	1238.923584	-52.181080
204.557037	1254.601440	1312.631958	1237.363159	-29.705545
204.934357	1252.669556	1313.894897	1237.809082	-24.271769
205.311661	1252.446655	1315.158081	1236.917480	-24.762911
205.688934	1252.372437	1306.464722	1239.146606	-24.450493
206.066177	1249.028809	1301.040649	1239.146484	-19.000143
206.443390	1242.192871	1294.799316	1245.536499	6.355928
206.820587	1241.524292	1296.656860	1246.205200	8.490278
207.197769	1240.706909	1299.257324	1249.400269	14.847648
207.574921	1243.456177	1299.554565	1246.279541	5.032879
207.952042	1243.307495	1294.724854	1237.511841	-11.271786
208.329147	1252.149536	1292.495850	1236.397339	-39.042469
208.706223	1254.006958	1297.994263	1244.421997	-21.790289
209.083267	1254.675781	1302.898193	1248.805786	-12.172753
209.460297	1252.520996	1306.539063	1247.914185	-8.528279
209.837280	1252.669556	1309.659668	1238.997925	-23.989479
210.214264	1252.075195	1309.956909	1242.341431	-16.816648
210.591217	1252.892456	1299.406128	1238.997925	-29.871929
210.968124	1249.400269	1293.907593	1236.620239	-28.714441
211.345016	1248.508667	1294.427734	1231.344727	-37.378677
211.721893	1246.428101	1297.548340	1237.437500	-17.587164
212.098724	1249.177368	1288.706421	1240.335327	-22.368462
212.475555	1249.994629	1282.242065	1240.929688	-28.110580
212.852356	1252.000854	1298.068481	1236.546021	-33.548145
213.229126	1251.555054	1306.093262	1236.323120	-27.928923
213.605865	1254.972900	1307.505005	1242.490112	-23.762209
213.982590	1256.533325	1294.130493	1245.536499	-29.249081
214.359283	1253.115356	1291.009766	1242.787231	-27.255011
214.735931	1248.434326	1292.941650	1232.384888	-36.060219
215.112579	1247.542603	1299.182983	1230.081421	-33.813038
215.489197	1249.400269	1301.114868	1227.035156	-43.247192
215.865799	1251.034790	1305.944702	1230.898804	-36.670948
216.242355	1249.474609	1304.830200	1233.573730	-28.724974
216.618896	1251.406494	1304.830078	1236.991699	-26.982080
216.995407	1252.000854	1299.926147	1232.087769	-41.550266
217.371902	1251.109253	1292.941650	1230.230103	-49.911438
217.748367	1253.412720	1290.415405	1229.561523	-64.458015
218.124802	1252.892578	1298.588745	1236.100098	-36.748116
218.501236	1253.858398	1297.994141	1230.081543	-53.872108
218.877609	1248.137085	1305.052979	1233.202271	-26.240147
219.253983	1253.041138	1299.554565	1227.852539	-54.153393
219.630295	1247.394043	1310.477051	1234.539673	-20.376913
220.006592	1252.223755	1309.956909	1230.378662	-37.838039
220.382889	1250.217651	1307.579224	1236.545776	-23.834555
220.759140	1254.155640	1297.697021	1228.298218	-59.385857
221.135391	1255.270142	1298.737305	1227.703735	-63.418922
221.511581	1247.914185	1306.613159	1223.097046	-42.278656
221.887772	1245.387939	1320.433472	1229.858643	-20.693167
222.263931	1238.106323	1321.845337	1236.397339	-2.040846
222.640060	1241.449829	1319.467773	1229.412720	-15.428642
223.016159	1244.124878	1310.551392	1232.459229	-17.561737
223.392212	1244.793457	1315.604004	1230.898926	-19.622122
223.768265	1248.805786	1321.251099	1239.295044	-13.128168
224.144302	1245.313599	1332.767944	1233.648071	-13.338991
224.520294	1248.359985	1323.405762	1233.945313	-19.207840
224.896286	1244.199097	1318.873413	1240.038208	-5.572048
225.272217	1251.480835	1311.666016	1238.997925	-20.740837
225.648148	1245.982422	1317.981812	1239.592285	-8.875265
226.024048	1250.291870	1318.055908	1235.728638	-21.491093
226.399902	1244.644897	1325.932007	1236.397339	-10.146207
226.775772	1248.582886	1336.928833	1239.146606	-10.681055
227.151581	1242.861694	1350.600586	1237.734741	-4.758684
227.527374	1243.010254	1354.761597	1235.505493	-6.715589
227.903137	1242.861694	1355.801636	1228.521118	-12.697524
228.278870	1246.576660	1353.572510	1232.607788	-13.055527
228.654572	1247.319702	1362.786133	1237.363281	-8.622784
229.030273	1255.195801	1368.953247	1236.694458	-16.263851
229.405930	1261.808716	1381.584839	1235.802856	-21.712057
229.781555	1265.598267	1386.042969	1238.180542	-22.763744
230.157181	1262.774658	1395.628052	1240.855347	-16.498873
230.532761	1251.555054	1394.662109	1241.746948	-6.853684
230.908325	1249.846069	1391.467163	1244.050415	-4.092367
231.283859	1251.926636	1384.631226	1246.948120	-3.751578
231.659332	1256.682007	1373.114258	1249.623047	-6.062719
232.034821	1258.168091	1369.399048	1247.691284	-9.418966
232.410263	1250.960571	1366.575562	1251.406372	0.385591
232.785690	1249.846069	1373.337280	1241.821411	-6.498161
233.161087	1251.629395	1368.061646	1240.335327	-9.700119
233.536469	1248.657227	1372.594238	1233.722534	-12.050228
233.911804	1247.245483	1374.749023	1240.335327	-5.419580
234.287140	1248.434448	1386.340210	1233.945313	-10.506549
234.662430	1251.629272	1390.649780	1232.607788	-13.682503
235.037704	1253.709839	1399.937500	1229.932983	-16.260162
235.412933	1249.846069	1402.241089	1234.688232	-9.946412
235.788162	1255.864624	1402.538086	1232.756348	-15.754913
236.163345	1255.344482	1399.417358	1234.539795	-14.440392
236.538513	1254.304321	1399.120117	1233.128052	-14.622900
236.913635	1245.239380	1395.776489	1240.038208	-3.455076
237.288742	1241.598511	1400.903442	1238.997925	-1.632458
237.663834	1244.719116	1399.863281	1241.598511	-2.011423
238.038879	1246.353882	1402.612305	1241.747070	-2.948200
238.413910	1254.898560	1407.813477	1245.536499	-6.122398
238.788910	1248.359985	1420.742188	1247.096802	-0.732781
239.163879	1251.257813	1428.544312	1243.233154	-4.526379
239.538834	1239.815308	1431.144897	1244.347656	2.368870
239.913757	1241.078247	1442.141602	1248.731567	3.806422
240.288651	1245.016235	1468.147461	1244.570557	-0.199738
240.663528	1253.561157	1496.233887	1245.016479	-3.521070
241.038361	1254.378540	1520.456543	1243.753296	-3.993282
241.413177	1253.561157	1545.496460	1251.109253	-0.839879
241.787979	1254.527222	1566.152710	1251.555054	-0.953763
242.162735	1257.722168	1600.777710	1248.731567	-2.620742
242.537476	1257.202148	1630.647461	1250.068970	-1.910100
242.912170	1258.688110	1650.709351	1252.000977	-1.705809
243.286865	1260.545654	1653.012695	1258.316650	-0.567947
243.661514	1262.774780	1638.746582	1257.499146	-1.403200
244.036148	1251.777832	1623.514526	1256.087402	1.159307
244.410751	1249.251587	1607.911011	1249.920288	0.186445
244.785339	1253.115356	1612.369141	1255.641602	0.703192
245.159882	1255.047241	1625.297852	1257.796387	0.742509
245.534378	1255.790405	1655.539063	1263.517700	1.933038
245.908890	1250.663452	1697.594360	1257.127686	1.446361
246.283356	1260.991577	1767.513184	1247.096802	-2.743175
246.657791	1257.424927	1842.112915	1252.892578	-0.775174
247.032196	1252.818115	1903.412720	1266.192749	2.055755
247.406586	1240.335327	1938.632324	1276.297852	5.150033
247.780960	1243.233154	1949.257690	1273.251343	4.251720
248.155289	1241.969971	1936.626099	1264.409424	3.230297
248.529602	1250.217529	1903.338501	1269.462036	2.946546
248.903870	1247.542603	1852.589722	1266.712769	3.168376
249.278122	1246.205200	1793.147461	1260.248413	2.567586
249.652344	1245.610840	1748.194336	1253.858521	1.641057
250.026550	1248.434448	1710.448608	1250.812134	0.514635
250.400711	1255.121582	1689.346680	1258.539551	0.787142
250.774857	1254.304199	1687.637695	1251.852173	-0.565852
251.148987	1256.756104	1713.792358	1252.446655	-0.942912
251.523071	1252.520874	1746.634155	1250.366211	-0.436067
251.897125	1252.520996	1767.735962	1253.115356	0.115362
252.271164	1246.502441	1771.005249	1254.452881	1.515805
252.645187	1243.456055	1771.896973	1253.412720	1.884159
253.019165	1240.483887	1770.782349	1258.390991	3.376797
253.393112	1241.747070	1759.562866	1256.682007	2.884218
253.767044	1245.462280	1737.123413	1256.310425	2.206427
254.140930	1251.406372	1713.569336	1257.499390	1.318370
254.514801	1256.310425	1698.188843	1253.486938	-0.638974
254.888657	1261.437256	1698.040039	1257.424927	-0.918988
255.262466	1258.539429	1707.922363	1248.062866	-2.331322
255.636276	1260.025513	1728.727173	1250.589111	-2.013307
256.010010	1254.229980	1742.918945	1247.171143	-1.444444
256.383759	1249.846069	1763.500854	1257.053467	1.403160
256.757446	1243.307373	1792.701660	1259.356812	2.921297
257.131134	1243.901733	1840.106812	1259.654053	2.642097
257.504791	1247.691284	1883.499634	1259.653931	1.881486
257.878418	1250.588989	1950.817871	1266.044067	2.207147
258.252014	1253.338257	2027.721191	1274.366089	2.715431
258.625580	1243.158691	2142.444580	1274.068726	3.437176
258.999115	1249.474487	2266.381592	1280.235840	3.024992
259.372650	1252.000854	2403.841553	1287.294678	3.064124
259.746124	1259.876953	2521.091309	1298.960327	3.098868
260.119598	1248.434204	2597.771729	1298.291504	3.694947
260.493042	1244.421997	2592.793457	1290.564087	3.422061
260.866425	1246.279663	2543.605225	1281.276123	2.697585
261.239838	1253.264038	2430.665039	1267.827271	1.236897
261.613159	1251.629272	2332.957031	1264.483643	1.188758
261.986511	1254.973022	2226.852539	1260.619995	0.581036
262.359802	1250.589233	2173.651611	1262.997559	1.344256
262.733063	1249.103149	2146.754150	1267.009888	1.994844
263.106293	1249.400269	2132.933838	1279.046997	3.355473
263.479523	1250.812012	2116.661621	1286.180176	4.084793
263.852692	1245.239380	2106.482178	1287.071655	4.857199
264.225861	1234.242554	2094.445068	1270.353516	4.197960
264.598969	1241.747070	2104.475830	1266.043945	2.816282
264.972076	1248.211426	2117.553467	1263.666382	1.777776
265.345154	1255.567383	2170.976807	1265.672485	1.103889
265.718201	1253.709839	2216.524414	1263.814941	1.049538
266.091217	1256.310547	2273.663086	1267.753052	1.124733
266.464203	1259.876953	2317.427490	1273.622925	1.299793
266.837158	1257.796387	2356.882324	1280.979004	2.109263
267.210114	1258.093628	2389.649902	1283.579468	2.252282
267.583038	1253.115356	2409.785889	1287.517700	2.974256
267.955902	1249.920410	2427.544189	1292.347290	3.602753
268.328766	1249.697510	2438.838135	1292.421509	3.592847
268.701569	1252.149536	2445.376953	1292.718628	3.399946
269.074371	1249.548950	2456.447998	1285.288452	2.961267
269.447144	1252.446655	2480.299072	1281.647583	2.378211
269.819885	1259.802612	2541.747314	1284.916870	1.959075
270.192596	1248.880127	2640.570068	1295.468018	3.347577
270.565277	1247.765625	2764.432617	1303.121216	3.649818
270.937927	1238.106323	2888.889648	1310.179810	4.366017
271.310577	1252.372437	2975.675049	1309.511230	3.315656
271.683136	1249.400391	3046.857422	1312.409058	3.505434
272.055725	1249.623169	3069.371094	1314.786743	3.580912
272.428284	1247.914185	3061.197998	1317.461548	3.835437
272.800812	1250.960571	3005.768311	1316.495728	3.734606
273.173279	1246.353882	2929.681885	1317.238770	4.210997
273.545776	1248.582886	2884.951904	1316.272705	4.136587
273.918152	1251.332153	2853.521484	1311.740112	3.770338
274.290558	1251.257935	2862.661133	1302.229492	3.163178
274.662964	1248.062866	2850.846680	1302.303711	3.384165
275.035278	1246.576782	2868.605225	1305.721802	3.646361
275.407593	1256.904785	2897.137451	1313.152100	3.429228
275.779907	1253.338257	2950.858398	1315.232544	3.646159
276.152161	1248.360107	3002.647217	1311.442993	3.595927
276.524384	1243.233154	3033.705811	1308.025146	3.618709
276.896606	1240.929688	3057.482666	1307.430786	3.660840
277.268799	1238.031982	3052.281494	1310.848633	4.013596
277.640930	1232.162109	3060.083252	1312.111694	4.373798
278.013031	1235.357056	3071.599854	1311.814453	4.163795
278.385162	1238.700562	3082.745361	1315.975464	4.190511
278.757233	1244.867798	3093.742432	1319.467651	4.034879
279.129272	1247.468384	3123.166260	1319.096191	3.818728
279.501282	1245.610840	3163.364014	1316.346924	3.688487
279.873230	1245.982300	3227.264404	1311.294434	3.296458
280.245178	1246.353882	3304.984619	1315.678223	3.367497
280.617126	1246.651001	3428.178955	1317.981689	3.269758
280.988983	1247.988525	3537.923828	1320.879395	3.183097
281.360870	1247.319702	3639.346924	1324.594604	3.230519
281.732697	1248.359985	3707.408447	1326.675049	3.184771
282.104492	1249.771851	3750.801025	1337.597534	3.511582
282.476288	1256.533325	3773.463623	1338.637817	3.262089
282.848053	1254.750122	3762.615479	1343.690552	3.546460
283.219757	1248.359985	3767.890869	1343.318970	3.768915
283.591461	1244.198975	3740.399170	1348.074341	4.161340
283.963135	1245.536499	3750.578369	1344.879272	3.965713
284.334747	1250.588989	3796.869141	1345.622437	3.732246
284.706360	1248.731567	3884.397705	1349.857544	3.836828
285.077942	1249.177246	3991.096436	1363.603638	4.173223
285.449524	1255.195801	4070.377686	1365.609741	3.922089
285.821014	1256.087524	4108.866211	1362.489014	3.729749
286.192535	1262.626099	4144.902832	1354.092773	3.173417
286.563995	1257.944946	4133.386230	1347.702759	3.121532
286.935425	1256.533325	4118.748535	1345.399414	3.104801
287.306824	1252.595215	4045.262939	1345.993774	3.344421
287.678223	1253.932739	3963.827393	1350.600586	3.567218
288.049561	1256.087524	3918.205078	1345.696655	3.366085
288.420898	1254.304199	3909.585938	1341.758423	3.293595
288.792145	1247.468384	3958.848877	1340.495483	3.430987
289.163452	1246.353882	4039.244385	1348.668701	3.663402
289.534668	1240.855469	4150.327148	1355.727417	3.948206
289.905914	1243.753296	4259.923828	1356.024536	3.722311
290.277039	1253.041016	4366.548340	1362.786255	3.524811
290.648193	1265.301025	4415.661621	1368.135864	3.264224
291.019318	1267.232788	4430.894043	1369.101929	3.219976
291.390381	1254.601440	4363.798340	1359.739868	3.381530
291.761475	1250.143188	4294.177246	1350.303345	3.290375
292.132507	1249.177368	4250.933105	1353.721191	3.482756
292.503510	1253.635620	4249.818359	1361.225952	3.590914
292.874481	1252.298096	4307.997559	1370.290649	3.861393
293.245422	1250.440552	4376.950684	1371.925415	3.885638
293.616364	1252.446655	4513.444824	1370.885132	3.631970
293.987213	1243.976196	4630.322754	1367.392944	3.644540
294.358093	1240.261108	4755.076660	1372.519897	3.762894
294.728943	1234.093872	4861.255371	1371.033813	3.775402
295.099731	1245.387939	4955.545898	1380.767456	3.648888
295.470490	1248.880127	5068.337402	1386.711548	3.608665
295.841248	1256.979126	5146.132324	1400.086060	3.679642
296.211975	1253.858398	5275.864746	1407.144897	3.811195
296.582642	1249.994751	5404.037109	1410.042847	3.852828
296.953308	1240.409668	5463.851074	1400.531860	3.791273
297.323883	1239.443726	5462.067871	1396.371094	3.716347
297.694519	1244.347656	5341.622559	1394.513550	3.665019
298.065063	1244.124756	5235.221191	1392.953125	3.729010
298.435608	1242.267212	5069.228516	1387.677734	3.799634
298.806122	1239.592285	4894.691406	1375.120483	3.707921
299.176575	1247.839966	4724.018066	1373.188599	3.605932
299.547028	1256.458984	4617.319824	1371.851196	3.433412
299.917450	1256.384644	4581.357422	1372.074097	3.479411
300.287872	1255.047241	4569.691895	1374.600220	3.606812
300.658234	1250.291870	4560.775391	1370.067871	3.618082
301.028564	1255.047241	4532.540039	1371.776855	3.561552
301.398865	1245.833618	4508.763184	1366.724243	3.704972
301.769135	1243.753296	4455.116699	1364.495239	3.759835
302.139374	1241.152710	4408.380371	1366.129883	3.945949
302.509583	1255.716064	4365.284668	1375.046265	3.837516
302.879791	1254.675781	4320.108887	1374.303101	3.902461
303.249939	1257.202026	4291.873535	1370.587891	3.736347
303.620087	1254.898682	4251.898926	1354.464233	3.322174
303.990173	1251.332153	4240.604980	1358.476563	3.584297
304.360260	1250.886230	4215.861816	1355.504517	3.528471
304.730286	1247.616943	4220.840332	1367.541626	4.033491
305.100281	1259.579590	4220.394531	1367.392944	3.641340
305.470276	1260.768677	4239.639160	1367.095703	3.569374
305.840179	1255.567505	4236.518066	1361.968872	3.569377
306.210144	1252.743896	4277.235840	1357.659302	3.468860
306.579987	1252.372314	4310.746582	1357.585083	3.440153
306.949890	1253.784058	4358.151855	1367.467285	3.662041
307.319702	1246.502441	4417.073730	1363.975098	3.705094
307.689484	1240.929810	4517.084961	1368.581665	3.896392
308.059265	1247.468384	4625.046875	1367.021484	3.539610
308.429016	1258.019409	4713.318848	1378.166870	3.477194
308.798737	1257.796509	4784.649414	1384.185181	3.583610
309.168396	1256.310547	4848.326660	1384.259766	3.562045
309.538055	1248.285767	4871.583496	1380.098755	3.637928
309.907684	1251.257813	4874.332520	1372.817017	3.355139
310.277313	1247.171143	4882.951660	1368.581909	3.339332
310.646851	1255.567383	4880.425293	1365.015259	3.019370
311.016388	1257.202026	4880.500000	1367.095703	3.032974
311.385895	1255.864502	4805.454102	1364.049316	3.047812
311.755371	1248.285645	4764.810547	1363.009155	3.262411
312.124817	1246.799683	4690.879395	1364.569458	3.419485
312.494232	1246.056641	4670.148926	1368.730469	3.582667
312.863617	1249.623169	4635.226563	1371.999634	3.614613
313.232971	1255.047363	4654.173828	1369.324829	3.361966
313.602295	1255.493164	4725.801758	1360.185669	3.016807
313.971619	1253.858521	4811.546875	1362.340454	3.049225
314.340820	1245.536621	4840.599121	1365.981079	3.350274
314.710083	1247.765625	4831.237305	1381.213257	3.723976
315.079285	1245.907959	4756.637207	1382.625000	3.894263
315.448486	1251.183472	4674.310059	1380.544556	3.779033
315.817596	1249.103027	4553.642090	1370.513672	3.674057
316.186707	1255.641724	4463.290039	1365.535522	3.425993
316.555786	1253.635620	4389.210449	1367.169922	3.620845
316.924866	1259.208252	4335.341309	1366.501343	3.487921
317.293884	1252.149414	4330.956543	1364.049316	3.634521
317.662872	1253.338257	4342.548340	1360.111328	3.456323
318.031830	1248.657227	4387.204102	1355.504517	3.404355
318.400757	1247.245483	4400.504395	1358.476685	3.527500
318.769684	1247.319702	4424.430176	1355.578735	3.407469
