Jaz Data File
++++++++++++++++++++++++++++++++++++
Date: Fri Jun 04 13:31:02 2021
User: jaz
Dark Spectrum Present: Yes
Reference Spectrum Present: Yes
Processed Spectrum Present: Yes
Spectrometers: JAZA3586
Integration Time (usec): 31100 (JAZA3586)
Spectra Averaged: 10 (JAZA3586)
Boxcar Smoothing: 1 (JAZA3586)
Correct for Electrical Dark: No (JAZA3586)
Strobe/Lamp Enabled: Yes (JAZA3586)
Correct for Detector Non-linearity: No (JAZA3586)
Correct for Stray Light: No (JAZA3586)
Number of Pixels in Processed Spectrum: 2048
>>>>>Begin Processed Spectral Data<<<<<
W	D	R	S	P
191.335022	0.000000	0.000000	0.000000	0.000000
191.713211	311.774200	307.316071	301.743378	225.000687
192.091385	620.056213	618.050110	607.721985	614.835083
192.469528	933.390808	929.452820	920.164978	335.852448
192.847641	935.025452	940.375244	929.006897	-112.500710
193.225739	947.582703	947.211121	941.341125	1679.730591
193.603790	957.464844	953.749695	947.434082	269.996216
193.981842	966.529785	961.923035	960.511230	130.646423
194.359863	966.455505	971.953857	963.260437	-58.109562
194.737854	968.461670	984.139465	969.204651	4.739065
195.115829	970.542175	980.944519	962.145935	-80.714890
195.493774	972.176819	973.142761	958.653625	-1400.000000
195.871704	968.758850	965.712463	951.669250	560.979309
196.249603	973.216980	963.037598	962.666016	103.650337
196.627457	972.325439	967.495667	964.969421	152.305664
197.005310	966.158264	966.306885	967.124207	649.938416
197.383133	957.464905	966.232605	956.276062	-13.559345
197.760910	956.424622	969.724792	955.755859	-5.028223
198.138687	960.734192	971.879639	961.625793	7.999693
198.516449	961.180115	970.244934	967.049988	64.754440
198.894180	967.198547	966.529785	967.792969	-88.883820
199.271866	970.616516	967.198425	965.117981	160.865677
199.649536	968.015869	978.789612	961.179932	-63.449978
200.027191	971.879578	978.046631	956.721863	-245.785370
200.404816	968.535950	975.223145	948.251282	-303.335968
200.782410	970.170654	979.235535	942.158508	-309.018372
201.159988	960.882813	990.009460	948.028381	-44.132889
201.537537	951.966492	1006.504700	948.251282	-6.812123
201.915070	951.594910	1007.990723	956.796143	9.222729
202.292557	946.988098	1005.612976	952.858093	10.012806
202.670029	953.675354	1004.201355	958.802307	10.147158
203.047485	945.947937	1003.755432	949.663086	6.426760
203.424911	943.867493	1004.721375	948.920105	8.302859
203.802292	943.941833	1007.024719	949.960266	9.540516
204.179688	946.765320	997.291016	951.743652	9.853070
204.557037	951.817871	996.770996	951.372070	-0.991701
204.934357	948.102722	993.724609	951.372070	7.166183
205.311661	942.678528	1000.560486	956.944763	24.647120
205.688934	943.941711	998.554199	958.950867	27.483009
206.066177	946.022278	993.501648	953.378235	15.492954
206.443390	951.817871	996.770996	957.910645	13.553615
206.820587	946.913818	997.811218	957.985046	21.752050
207.197769	948.919983	994.319031	957.762024	19.476271
207.574921	948.771484	986.665833	947.954102	-2.157005
207.952042	953.675476	985.625671	946.839539	-21.395605
208.329147	946.988220	992.907227	948.474182	3.236050
208.706223	955.532959	1006.281738	959.693909	8.199113
209.083267	950.034607	1007.099121	957.836365	13.671821
209.460297	951.149109	995.879395	960.585632	21.096497
209.837280	939.334961	983.916687	955.012878	35.166691
210.214264	938.889160	978.121033	957.985046	48.674419
210.591217	942.455750	986.740051	948.474304	13.590718
210.968124	953.155273	987.780334	940.375244	-36.909767
211.345016	954.492737	991.124023	933.836609	-56.389305
211.721893	946.988220	993.204529	938.591980	-18.167267
212.098724	941.118225	995.582214	948.994385	14.461225
212.475555	946.542297	1003.086731	957.613464	19.579588
212.852356	949.217285	999.743103	957.910645	17.205776
213.229126	945.353516	996.399597	955.087097	19.068224
213.605865	937.923157	990.752441	951.966370	26.582251
213.982590	937.551697	988.820618	954.269836	32.608723
214.359283	946.319519	982.356262	950.183167	10.721412
214.735931	947.879822	981.910461	942.678650	-15.283792
215.112579	953.824036	980.795898	936.585754	-63.912090
215.489197	948.845703	988.300537	931.236023	-44.632504
215.865799	949.068665	984.436707	937.403137	-32.983242
216.242355	941.118225	989.935120	942.232849	2.283275
216.618896	940.523865	992.907227	953.824036	25.390068
216.995407	947.359680	995.582214	954.046936	13.867492
217.371902	953.452576	992.758606	941.935547	-29.300920
217.748367	952.338074	991.123962	932.647766	-50.766678
218.124802	945.873718	996.622375	935.917053	-19.619564
218.501236	947.582581	991.792725	945.056335	-5.714175
218.877609	948.845703	987.706055	943.718811	-13.193118
219.253983	945.279236	992.684326	943.124329	-4.545730
219.630295	943.198730	996.845276	943.867371	1.246381
220.006592	940.078064	999.817383	943.421570	5.596826
220.382889	943.718933	993.204529	936.214172	-15.165545
220.759140	943.941711	999.668762	931.681824	-21.999886
221.135391	941.266846	1003.383972	928.783997	-20.095665
221.511581	940.523926	1006.058838	931.533203	-13.718982
221.887772	937.774597	1001.080566	938.517761	1.173924
222.263931	947.285400	1001.377747	939.483643	-14.423035
222.640060	950.257507	1006.727600	940.003723	-18.157902
223.016159	942.975830	1017.575745	932.870667	-13.545812
223.392212	931.161682	1031.098755	942.901550	11.747260
223.768265	925.886230	1035.482666	941.341125	14.101640
224.144302	935.025391	1030.504517	946.542419	12.062352
224.520294	945.204895	1028.349731	946.839539	1.966019
224.896286	940.969666	1025.749023	953.155273	14.373320
225.272217	935.545593	1028.869751	950.406067	15.923501
225.648148	928.263916	1027.458008	948.399902	20.299582
226.024048	940.449524	1026.714966	943.124329	3.100668
226.399902	940.226624	1025.526245	947.731140	8.797832
226.775772	952.486572	1022.108215	945.130554	-10.565706
227.151581	950.406067	1023.297119	953.229675	3.873738
227.527374	953.749695	1036.300171	952.040833	-2.070082
227.903137	944.313293	1050.194580	954.195557	9.333343
228.278870	943.198730	1067.432739	943.050110	-0.119630
228.654572	941.341125	1077.983887	945.576355	3.099491
229.030273	946.988098	1093.141724	954.121277	4.880603
229.405930	944.313232	1105.698853	959.842529	9.622478
229.781555	944.164734	1116.101196	960.437012	9.464123
230.157181	934.728271	1107.779297	954.046936	11.163566
230.532761	934.802551	1100.126099	954.715637	12.044918
230.908325	939.186462	1091.432739	956.647644	11.469037
231.283859	952.412292	1098.937134	953.378235	0.659235
231.659332	953.378235	1091.952759	950.480408	-2.091169
232.034821	955.830261	1080.584473	949.217285	-5.300804
232.410263	948.474304	1063.049072	951.149109	2.334549
232.785690	949.737366	1064.683716	950.554688	0.711046
233.161087	953.229675	1065.946777	948.771423	-3.955258
233.536469	944.684814	1079.544312	950.628967	4.407663
233.911804	941.638428	1086.900146	950.851868	6.342649
234.287140	927.446594	1096.559570	947.656921	11.950785
234.662430	931.236023	1092.918701	947.805481	10.248135
235.037704	933.019348	1092.770142	946.022217	8.139470
235.412933	943.867493	1095.519287	954.046875	6.712339
235.788162	943.867432	1103.543945	952.709473	5.537471
236.163345	940.969727	1105.104370	957.241943	9.913944
236.538513	933.242188	1107.036255	952.486572	11.073096
236.913635	931.384583	1105.104370	951.817871	11.762212
237.288742	935.174072	1116.026855	946.022278	5.998363
237.663834	940.003723	1121.005249	946.913879	3.817734
238.038879	952.412292	1125.389038	948.177063	-2.448439
238.413910	952.337952	1119.742065	952.932434	0.355118
238.788910	954.566956	1122.937012	955.607361	0.617928
239.163879	947.434021	1133.933838	952.783875	2.868557
239.538834	948.102722	1147.159790	963.111877	7.540127
239.913757	951.817871	1156.521851	960.957092	4.464603
240.288651	957.613525	1177.252319	964.746521	3.247603
240.663528	957.539124	1208.831055	957.241943	-0.118261
241.038361	951.743469	1240.335327	959.471008	2.677670
241.413177	942.084229	1274.291748	960.214111	5.457397
241.787979	939.112000	1304.978760	969.724854	8.367214
242.162735	938.963379	1350.080566	968.387390	7.157086
242.537476	940.300842	1370.959595	972.771240	7.539705
242.912170	945.130615	1392.581665	966.826965	4.848877
243.286865	947.879883	1387.826172	966.604065	4.256015
243.661514	950.257507	1374.526001	964.895203	3.450102
244.036148	948.177002	1349.114502	964.375000	4.040030
244.410751	950.331787	1335.665649	965.341003	3.895120
244.785339	949.440186	1335.739990	962.220215	3.308319
245.159882	948.102722	1354.835815	968.610291	5.042021
245.534378	940.449524	1388.792114	974.405823	7.573739
245.908890	943.273010	1452.246704	983.693665	7.941600
246.283356	937.774658	1525.286499	982.950684	7.689381
246.657791	949.737366	1614.375366	992.535706	6.439346
247.032196	946.245178	1687.340454	993.873230	6.426711
247.406586	955.978760	1730.213257	995.433594	5.095980
247.780960	949.365906	1735.191528	988.969238	5.039710
248.155289	951.520691	1709.482788	990.752502	5.175960
248.529602	950.480469	1670.622437	989.192139	5.375561
248.903870	948.325684	1612.369019	982.207703	5.102381
249.278122	945.650818	1546.239624	965.117981	3.241346
249.652344	934.951172	1485.980103	959.842590	4.517262
250.026550	934.059570	1440.804077	957.836426	4.692080
250.400711	939.780823	1427.652466	958.876648	3.914109
250.774857	944.387634	1432.110718	946.913879	0.517967
251.148987	945.353516	1455.961914	947.136719	0.349231
251.523071	941.564148	1478.401245	953.378113	2.200661
251.897125	944.833313	1497.645874	970.170593	4.583340
252.271164	938.889160	1509.831421	970.170593	5.478914
252.645187	941.861328	1518.896118	973.885742	5.549824
253.019165	937.477478	1520.456543	967.792969	5.200099
253.393112	946.319519	1507.750610	969.724854	4.168870
253.767044	942.530029	1478.995605	968.684570	4.875344
254.140930	951.594910	1452.618164	968.535950	3.381288
254.514801	953.452576	1438.128906	968.312988	3.066049
254.888657	948.325623	1438.054688	966.083984	3.626160
255.262466	941.861267	1437.683228	966.009583	4.870360
255.636276	939.483582	1458.785522	967.347168	5.365585
256.010010	950.108887	1480.630371	969.353271	3.627447
256.383759	953.303894	1518.078979	977.452332	4.275762
256.757446	953.006653	1542.524414	977.377930	4.134104
257.131134	945.279236	1587.403320	975.297546	4.674846
257.504791	943.644531	1634.882813	968.164490	3.547251
257.878418	938.369080	1718.473511	968.313049	3.838457
258.252014	946.542419	1810.905884	978.492493	3.696370
258.625580	948.920105	1923.771851	993.130188	4.535057
258.999115	948.845886	2053.801514	1002.046570	4.814735
259.372650	943.050110	2199.137695	1007.544922	5.134579
259.746124	934.876770	2346.554199	1011.780212	5.447664
260.119598	933.910889	2429.996338	1014.826599	5.408495
260.493042	930.344421	2442.924805	1016.981262	5.727751
260.866425	935.694153	2369.810791	1009.922546	5.175896
261.239838	945.427795	2264.152588	1012.671814	5.099170
261.613159	954.715637	2142.221924	1011.631592	4.792897
261.986511	947.656921	2044.662231	1010.368408	5.716607
262.359802	933.093567	1964.043823	998.034180	6.299103
262.733063	924.102844	1912.403442	987.631653	6.428086
263.106293	922.542542	1892.639038	982.727722	6.204041
263.479523	934.802490	1891.078491	983.693665	5.112664
263.852692	945.279236	1888.998047	985.922852	4.306751
264.225861	956.796082	1876.069336	986.740173	3.257366
264.598969	957.985046	1879.710327	996.622375	4.191849
264.972076	951.743591	1895.462524	997.959778	4.897241
265.345154	950.703308	1938.186523	1002.938049	5.289684
265.718201	943.050110	1981.727905	994.913391	4.993202
266.091217	951.520691	2046.073853	998.628601	4.303848
266.464203	952.635254	2099.572021	999.371582	4.074883
266.837158	957.687805	2146.234131	1011.408691	4.519881
267.210114	943.050232	2188.364014	1011.557190	5.501181
267.583038	935.322754	2202.407227	1014.380676	6.239357
267.955902	931.236084	2214.146729	1007.916321	5.977052
268.328766	938.517761	2209.094238	1003.309631	5.099408
268.701569	944.090393	2240.747070	1002.789490	4.526958
269.074371	954.492737	2253.675781	999.371582	3.454390
269.447144	958.430847	2295.656982	1006.430359	3.589484
269.819885	956.053040	2349.749268	1006.578918	3.625315
270.192596	951.149109	2461.872070	1017.947327	4.421606
270.565277	946.913879	2593.833740	1029.092651	4.989846
270.937927	946.096680	2723.194580	1037.043091	5.117693
271.310577	943.570313	2834.574219	1037.488892	4.966599
271.683136	943.718811	2899.366455	1034.739746	4.654260
272.055725	946.542297	2924.703857	1037.414551	4.593773
272.428284	945.056335	2897.508789	1044.473389	5.091907
272.800812	944.016113	2848.766357	1050.417603	5.586112
273.173279	943.867432	2788.878662	1040.906738	5.259551
273.545776	947.508301	2745.782471	1037.786133	5.020248
273.918152	946.690918	2701.720947	1025.600464	4.496193
274.290558	942.084167	2680.099121	1031.767578	5.160106
274.662964	936.065674	2668.953857	1033.476563	5.621303
275.035278	938.591980	2686.786377	1045.290649	6.103364
275.407593	940.746765	2705.436279	1050.194702	6.202107
275.779907	948.845764	2752.618408	1049.228638	5.565162
276.152161	949.440186	2802.252686	1044.547729	5.133144
276.524384	952.486572	2851.218018	1040.906860	4.656808
276.896606	955.755859	2884.951904	1043.581665	4.552456
277.268799	960.214050	2902.338623	1039.495117	4.082182
277.640930	958.950989	2919.205078	1041.129761	4.192251
278.013031	951.669250	2921.731689	1040.832520	4.525911
278.385162	952.263672	2929.087646	1044.770508	4.679569
278.757233	949.217285	2924.257813	1051.531982	5.180385
279.129272	945.427795	2951.824219	1050.194580	5.221639
279.501282	940.003723	2982.362549	1060.671265	5.908244
279.873230	937.328857	3051.241211	1058.516602	5.732865
280.245178	936.957336	3153.407471	1071.296509	6.061006
280.617126	941.118225	3289.901611	1069.959229	5.485435
280.988983	947.805481	3418.593750	1069.216187	4.913845
281.360870	948.399902	3522.171875	1068.621704	4.671035
281.732697	941.489746	3609.626221	1070.404907	4.831656
282.104492	939.557922	3654.059326	1084.522583	5.340379
282.476288	947.731201	3671.371826	1084.002441	5.003275
282.848053	951.446472	3645.217041	1085.191284	4.964967
283.219757	946.170898	3646.926514	1086.008667	5.177728
283.591461	938.889221	3623.000732	1088.460571	5.572472
283.963135	935.545593	3647.966553	1093.290283	5.815642
284.334747	936.511536	3693.439697	1090.392456	5.581608
284.706360	941.415466	3796.200439	1093.438843	5.325213
285.077942	941.341125	3900.744385	1091.581177	5.076701
285.449524	942.827148	3994.365479	1096.708130	5.042735
285.821014	937.551758	4013.238525	1092.547241	5.039378
286.192535	940.672424	4041.844971	1092.695679	4.902122
286.563995	939.260742	4038.501221	1090.020874	4.864422
286.935425	944.833496	4026.464600	1090.986816	4.742726
287.306824	941.415527	3942.725342	1097.971313	5.216249
287.678223	946.245178	3860.175049	1098.417114	5.222224
288.049561	941.192566	3814.255859	1102.652466	5.619782
288.420898	947.582581	3816.262451	1097.674072	5.232075
288.792145	947.062500	3859.803711	1095.222046	5.086602
289.163452	947.285339	3949.784180	1100.126099	5.090452
289.534668	947.062500	4066.662109	1099.234375	4.877930
289.905914	950.480408	4185.769531	1103.692505	4.735654
290.277039	953.675476	4286.598145	1100.125977	4.394056
290.648193	948.028503	4344.703125	1113.351929	4.867214
291.019318	944.981995	4340.541504	1112.237427	4.925710
291.390381	945.279114	4273.149414	1111.865967	5.005810
291.761475	946.245117	4201.075684	1106.144653	4.912684
292.132507	944.016113	4153.150391	1108.002197	5.109979
292.503510	945.427917	4142.599609	1105.401611	5.003601
292.874481	942.455750	4186.289551	1109.339722	5.144652
293.245422	942.604309	4271.960938	1107.482056	4.952240
293.616364	944.759094	4423.389160	1125.091797	5.184015
293.987213	947.136780	4551.487793	1131.333130	5.110389
294.358093	949.514465	4673.121094	1140.695435	5.134295
294.728943	946.468079	4790.147949	1137.871948	4.979703
295.099731	948.177002	4916.536621	1138.540649	4.797036
295.470490	948.251282	5031.260254	1155.481567	5.075430
295.841248	948.251282	5131.865723	1162.020142	5.109670
296.211975	950.406067	5253.351074	1166.701294	5.026679
296.582642	949.217224	5394.080566	1167.815796	4.918005
296.953308	947.656921	5448.470215	1174.651733	5.043417
297.323883	946.245117	5428.928223	1176.657837	5.140063
297.694519	947.433899	5309.375488	1173.760132	5.188658
298.065063	953.080994	5172.509766	1169.450562	5.127935
298.435608	949.440125	4995.817383	1166.998535	5.376622
298.806122	947.805481	4803.521973	1149.388672	5.228164
299.176575	946.393738	4638.272949	1135.122559	5.111999
299.547028	947.508240	4519.982910	1129.921387	5.106072
299.917450	946.319397	4482.831543	1134.231079	5.313475
300.287872	935.917053	4463.513184	1136.757446	5.693407
300.658234	944.090393	4461.507324	1122.491211	5.071927
301.028564	947.062500	4433.717285	1119.964966	4.958979
301.398865	961.625793	4400.801270	1114.392212	4.441949
301.769135	959.916809	4349.532715	1120.262085	4.730485
302.139374	962.368835	4297.817871	1112.534546	4.502114
302.509583	943.793213	4253.904785	1109.562500	5.007967
302.879791	942.084229	4194.091309	1106.961914	5.070028
303.249939	939.780945	4149.955078	1115.060913	5.460139
303.620087	945.279236	4112.061035	1114.615112	5.347254
303.990173	943.570251	4105.076660	1119.073242	5.551246
304.360260	949.588806	4109.757813	1108.225098	5.019867
304.730286	961.328613	4096.903809	1111.197144	4.779618
305.100281	963.186218	4092.371094	1101.612183	4.423707
305.470276	957.241943	4081.002930	1104.658569	4.719203
305.840179	950.926270	4098.389648	1096.559570	4.627006
306.210144	940.969666	4114.141113	1090.912598	4.725334
306.579987	937.551758	4164.518555	1094.256104	4.856088
306.949890	935.768494	4215.416504	1102.800903	5.092998
307.319702	942.455750	4316.690918	1117.587158	5.190255
307.689484	942.455750	4413.210449	1123.754272	5.223605
308.059265	941.415527	4528.973633	1131.407593	5.295860
308.429016	936.065674	4609.443848	1135.197021	5.420932
308.798737	940.152283	4686.867188	1126.949341	4.985622
309.168396	937.403076	4733.157715	1128.509644	5.034745
309.538055	943.198730	4751.138672	1135.940063	5.061564
309.907684	935.322693	4746.160645	1143.073120	5.451568
310.277313	940.449524	4768.228516	1146.416626	5.380851
310.646851	938.443359	4769.640625	1137.500366	5.195687
311.016388	950.777588	4777.888184	1137.277344	4.873122
311.385895	953.675476	4715.770996	1130.293091	4.694661
311.755371	954.418457	4668.068848	1133.339478	4.817928
312.124817	947.954102	4589.679199	1129.104126	4.974292
312.494232	947.359619	4521.767090	1125.760620	4.991065
312.863617	950.034485	4490.336426	1118.924683	4.770503
313.232971	950.926208	4503.710449	1121.302368	4.795568
313.602295	950.851868	4584.254395	1126.429321	4.832315
313.971619	946.988098	4663.312988	1131.036011	4.952417
314.340820	948.548523	4695.782715	1135.271240	4.982948
314.710083	939.929382	4701.727051	1136.088623	5.214508
315.079285	944.461853	4630.322754	1131.258911	5.067936
315.448486	942.678711	4555.351563	1125.686157	5.065708
315.817596	947.879883	4429.110840	1123.382813	5.041404
316.186707	949.143005	4330.585449	1121.599487	5.100086
316.555786	949.365784	4235.923828	1117.884399	5.127511
316.924866	949.440186	4177.967773	1107.333618	4.890571
317.293884	946.616699	4171.131836	1105.773193	4.935827
317.662872	944.090393	4200.704102	1099.828979	4.782225
318.031830	949.291565	4228.864746	1095.296387	4.451946
318.400757	947.136719	4263.341309	1092.250000	4.375885
318.769684	948.920105	4288.604492	1098.417114	4.476381
319.138550	945.502136	4308.071777	1101.389282	4.635953
319.507416	949.811707	4268.319824	1105.252930	4.684070
319.876190	946.319519	4207.688965	1104.807129	4.859542
320.244995	948.697205	4145.051270	1109.636841	5.035100
320.613770	944.239014	4106.265625	1108.448120	5.193160
320.982483	951.149170	4128.036133	1110.379883	5.012162
321.351166	944.313293	4168.977051	1107.630493	5.064627
321.719818	943.273010	4238.672852	1105.995850	4.937879
322.088440	939.483582	4345.000488	1108.819458	4.972399
322.457062	946.319519	4526.298828	1117.661499	4.786117
322.825623	953.452637	4688.204590	1125.314697	4.601699
323.194183	950.926270	4807.237793	1135.419922	4.784200
323.562653	948.325684	4865.639648	1137.649048	4.832989
