Jaz Data File
++++++++++++++++++++++++++++++++++++
Date: Fri Jun 04 13:37:50 2021
User: jaz
Dark Spectrum Present: Yes
Reference Spectrum Present: Yes
Processed Spectrum Present: Yes
Spectrometers: JAZA3586
Integration Time (usec): 30700 (JAZA3586)
Spectra Averaged: 10 (JAZA3586)
Boxcar Smoothing: 1 (JAZA3586)
Correct for Electrical Dark: No (JAZA3586)
Strobe/Lamp Enabled: Yes (JAZA3586)
Correct for Detector Non-linearity: No (JAZA3586)
Correct for Stray Light: No (JAZA3586)
Number of Pixels in Processed Spectrum: 2048
>>>>>Begin Processed Spectral Data<<<<<
W	D	R	S	P
191.335022	0.000000	0.000000	0.000000	0.000000
191.713211	290.375031	294.164459	300.182983	258.824036
192.091385	586.397034	587.808777	592.935730	463.164734
192.469528	886.431458	888.140381	891.186829	278.267090
192.847641	899.657288	900.549011	891.781250	-883.237488
193.225739	907.161926	913.180420	907.384827	3.703591
193.603790	918.233093	923.137024	920.610657	48.482811
193.981842	924.771729	924.102966	935.471252	-1599.899658
194.359863	931.310242	928.486816	939.409363	-286.854462
194.737854	934.653809	925.366150	947.359680	-136.803818
195.115829	935.174011	929.155518	942.455627	-120.987350
195.493774	934.951111	928.561096	941.638367	-104.651649
195.871704	940.003723	937.700378	932.796326	312.910065
196.249603	938.814880	935.991394	933.539368	186.843933
196.627457	935.025391	938.889160	935.396912	9.615506
197.005310	920.982178	929.972900	931.607605	118.182129
197.383133	924.548767	937.551758	926.852234	17.714899
197.760910	929.972839	945.502136	923.062683	-44.497547
198.138687	931.756165	951.372070	928.115234	-18.561111
198.516449	930.195801	942.307129	930.418640	1.839925
198.894180	923.359863	927.223694	929.229797	151.920074
199.271866	918.010193	920.759338	926.480652	308.112427
199.649536	919.273254	924.548828	929.824219	199.996536
200.027191	918.976074	921.428040	930.790222	481.823608
200.404816	923.805725	929.304016	935.248352	208.112427
200.782410	924.177246	933.687988	929.750000	58.594311
201.159988	923.582764	952.189270	929.675598	21.298771
201.537537	923.731445	956.944763	930.121399	19.239130
201.915070	915.632385	959.916809	935.025391	43.791935
202.292557	918.010071	958.579407	929.972839	29.487219
202.670029	919.793457	961.402893	925.291809	13.214195
203.047485	918.530273	956.944641	923.285645	12.379148
203.424911	913.403320	959.619629	927.000732	29.421242
203.802292	911.917297	958.505066	923.211243	24.242298
204.179688	908.647949	966.529785	922.765442	24.390196
204.557037	911.397217	959.619629	925.588928	29.429701
204.934357	906.641785	962.443115	921.056458	25.832130
205.311661	908.722351	953.303894	915.855286	15.999748
205.688934	910.654114	957.687744	909.762512	-1.895668
206.066177	911.397156	956.870422	911.248596	-0.326696
206.443390	906.418945	960.288330	916.078308	17.931080
206.820587	905.304382	957.984924	923.285645	34.132645
207.197769	904.932861	956.573242	929.155518	46.906425
207.574921	910.059753	965.638184	926.109131	28.876989
207.952042	908.350769	968.610291	919.050354	17.755840
208.329147	904.412781	961.477234	917.490051	22.916666
208.706223	918.233093	968.164490	928.486816	20.535624
209.083267	914.666504	964.226379	932.201965	35.382378
209.460297	920.164856	964.375000	935.619873	34.958080
209.837280	904.784363	950.108887	928.115295	51.475296
210.214264	907.830750	954.492737	926.332031	39.649578
210.591217	904.858582	955.161438	924.548767	39.143276
210.968124	904.709961	961.625793	918.158691	23.629156
211.345016	901.514893	961.848694	917.192688	25.985094
211.721893	901.737793	969.056152	917.935791	24.061783
212.098724	902.778076	963.409119	914.815125	19.852947
212.475555	905.378723	967.941589	917.712891	19.714838
212.852356	903.223938	969.947754	909.985413	10.133525
213.229126	908.425110	969.056152	911.694336	5.392000
213.605865	907.682068	963.037598	904.561279	-5.637718
213.982590	908.870911	955.310059	900.325989	-18.400255
214.359283	904.561340	954.789978	904.635559	0.147762
214.735931	907.087646	952.783752	910.728333	7.967169
215.112579	912.214539	956.350281	922.914063	24.242311
215.489197	902.406555	959.693909	921.576599	33.462959
215.865799	899.508789	964.895203	922.171082	34.659023
216.242355	891.632629	965.415283	916.003906	33.031174
216.618896	894.010315	957.464844	922.394043	44.730816
216.995407	896.239441	954.269836	922.096741	44.558201
217.371902	899.954529	948.919983	926.777832	54.780056
217.748367	901.886414	949.811707	922.096741	42.170483
218.124802	895.942200	947.359680	913.923523	34.971226
218.501236	895.645020	954.566956	912.214539	28.121138
218.877609	905.527344	964.226379	914.294922	14.936494
219.253983	911.620117	975.371826	917.564270	9.323912
219.630295	911.620117	978.789734	919.793396	12.168118
220.006592	906.344543	971.136536	913.700500	11.353189
220.382889	901.291992	971.582336	912.808838	16.384676
220.759140	905.081482	967.198547	909.390930	6.937624
221.135391	903.372559	971.136536	914.443604	16.337656
221.511581	909.242432	961.997314	918.455994	17.464851
221.887772	907.236267	960.808411	920.536438	24.826654
222.263931	913.774902	963.409119	921.205139	14.969989
222.640060	912.065918	968.090149	917.638489	9.946715
223.016159	910.951416	971.210754	913.477600	4.192187
223.392212	906.790344	971.730957	914.072021	11.212825
223.768265	902.778015	978.566833	924.994629	29.313841
224.144302	906.567444	982.876404	926.926453	26.679708
224.520294	910.579834	988.300476	924.771667	18.260057
224.896286	907.459167	985.551270	920.164856	16.270132
225.272217	904.487061	988.151855	917.490051	15.541771
225.648148	901.143372	988.671936	915.112305	15.959285
226.024048	908.350769	988.077637	909.168152	1.025229
226.399902	910.059753	987.408875	915.632507	7.204677
226.775772	905.527344	995.359314	917.712891	13.564822
227.151581	902.852356	1007.024719	923.508606	19.828917
227.527374	894.902039	1014.380676	928.412537	28.047272
227.903137	896.165039	1030.504395	928.486816	24.059797
228.278870	898.988586	1044.919067	928.635315	20.315651
228.654572	896.016418	1060.299683	921.873840	15.739535
229.030273	893.415833	1062.454468	922.022461	16.923130
229.405930	895.793518	1063.569214	915.929688	12.001840
229.781555	903.892578	1068.398804	913.403320	5.781387
230.157181	913.997742	1072.931274	915.038025	0.654540
230.532761	913.849121	1073.599976	913.180420	-0.418590
230.908325	915.409485	1064.312134	916.598328	0.798403
231.283859	911.471497	1056.658813	920.610657	6.294737
231.659332	911.694397	1052.052124	924.623108	9.211257
232.034821	903.892578	1049.377319	929.898621	17.875443
232.410263	898.096985	1045.439331	923.434265	17.196198
232.785690	888.883484	1039.643677	926.257751	24.790541
233.161087	889.329285	1041.947144	915.855408	17.380747
233.536469	900.846191	1047.148193	917.118469	11.122389
233.911804	901.143372	1060.522827	917.415710	10.209809
234.287140	901.886414	1064.535034	917.415710	9.547758
234.662430	892.152771	1061.414429	914.072083	12.949957
235.037704	898.394226	1063.569214	909.911133	6.972549
235.412933	906.938965	1061.785889	909.836853	1.871454
235.788162	906.938965	1067.878540	913.997803	4.386017
236.163345	908.796570	1060.745605	916.003967	4.743299
236.538513	901.069153	1064.312134	919.124695	11.060532
236.913635	895.867920	1073.377197	914.146423	10.297210
237.288742	892.524353	1080.138672	916.078308	12.554455
237.663834	895.570740	1092.250000	918.976074	11.900255
238.038879	900.251770	1087.866089	923.508484	12.396023
238.413910	903.818298	1096.039429	917.118469	6.919203
238.788910	905.155701	1097.971313	918.901794	7.129139
239.163879	907.384766	1111.345825	916.375488	4.408059
239.538834	905.898743	1119.147461	920.759338	6.968668
239.913757	906.047363	1138.763550	920.982178	6.417609
240.288651	909.539551	1160.014038	924.623047	6.021969
240.663528	906.121643	1188.323364	923.731445	6.240147
241.038361	900.400391	1210.094116	924.994629	7.941471
241.413177	897.279602	1237.734741	930.492920	9.755564
241.787979	901.514893	1268.644653	936.139954	9.431287
242.162735	907.904968	1314.638062	931.904724	5.900616
242.537476	909.019470	1344.582031	928.041016	4.367121
242.912170	906.938965	1363.380493	934.356750	6.006856
243.286865	903.521057	1361.745850	945.799316	9.226533
243.661514	903.372498	1346.811035	948.548523	10.187663
244.036148	910.134033	1335.591309	949.440125	9.238552
244.410751	911.991638	1318.427368	948.845703	9.067624
244.785339	908.127930	1327.863892	945.427734	8.886493
245.159882	905.675964	1339.157959	937.477356	7.336266
245.534378	906.641846	1374.600220	940.003723	7.129241
245.908890	908.870850	1432.853638	949.217285	7.699955
246.283356	909.242371	1516.518555	955.310059	7.585953
246.657791	908.053528	1598.623047	954.938538	6.789325
247.032196	910.282654	1666.907227	953.081055	5.656491
247.406586	909.019531	1703.761353	957.093323	6.048982
247.780960	909.985413	1715.204102	953.378235	5.388949
248.155289	910.505554	1695.513794	953.229675	5.442506
248.529602	906.195984	1655.018677	952.040833	6.122257
248.903870	905.898743	1599.588989	953.303955	6.833772
249.278122	910.728455	1532.493652	957.093323	7.456974
249.652344	910.282532	1478.624023	958.133545	8.419413
250.026550	914.517883	1438.946411	954.195557	7.565887
250.400711	908.945129	1419.033325	948.177002	7.691194
250.774857	910.431213	1411.454468	940.895325	6.080379
251.148987	905.304382	1426.017944	944.090393	7.448627
251.523071	902.257996	1457.224976	942.975830	7.336983
251.897125	899.805969	1495.490845	944.610535	7.521522
252.271164	896.313782	1516.741577	945.725037	7.964062
252.645187	899.360168	1517.484497	950.703308	8.306280
253.019165	906.790466	1494.822266	962.294617	9.438971
253.393112	907.904968	1476.469360	962.220215	9.553051
253.767044	903.372498	1455.664551	959.322449	10.130501
254.140930	894.976257	1439.243774	950.554688	10.211601
254.514801	902.852356	1423.268555	947.954041	8.666465
254.888657	908.499329	1417.844604	948.251282	7.804520
255.262466	909.539551	1426.835083	951.520691	8.115504
255.636276	903.149597	1434.934204	950.331848	8.872437
256.010010	904.858582	1458.636719	963.409119	10.572924
256.383759	909.539551	1485.608765	969.501953	10.408889
256.757446	915.335205	1529.595825	970.467773	8.975436
257.131134	907.830750	1568.827759	960.957031	8.037295
257.504791	910.356934	1631.464844	950.926270	5.625973
257.878418	908.053528	1711.117554	962.443176	6.772766
258.252014	911.248596	1809.196899	968.610352	6.388091
258.625580	909.019531	1926.372437	981.538879	7.128239
258.999115	901.886414	2067.621826	989.415039	7.508447
259.372650	904.932800	2236.586182	995.062012	6.768219
259.746124	900.549011	2375.755127	1003.606873	6.985998
260.119598	897.799805	2457.636719	1006.876160	6.992805
260.493042	900.697571	2459.940186	1009.476807	6.976415
260.866425	902.332275	2388.312256	1000.337585	6.595332
261.239838	908.870911	2272.251709	990.306641	5.973073
261.613159	900.697571	2137.837891	984.139465	6.744740
261.986511	903.966980	2037.157715	981.687500	6.858556
262.359802	900.697571	1970.285156	968.981689	6.384154
262.733063	897.502625	1942.718872	969.501953	6.888462
263.106293	896.239441	1929.864624	962.294617	6.390631
263.479523	907.682129	1914.038086	970.022034	6.194618
263.852692	912.957581	1896.279663	966.232605	5.417861
264.225861	911.917297	1879.487305	966.009583	5.590529
264.598969	900.697571	1885.728882	969.873352	7.022699
264.972076	894.010315	1907.573853	967.272766	7.228205
265.345154	901.143372	1958.173828	973.885742	6.881766
265.718201	903.149597	2023.040161	966.826965	5.686035
266.091217	913.031921	2088.054932	970.021973	4.850122
266.464203	906.270325	2145.565430	969.799133	5.126205
266.837158	908.276428	2190.146973	983.842346	5.894972
267.210114	903.818298	2228.784424	984.734070	6.107007
267.583038	908.647949	2253.155762	988.969238	5.974029
267.955902	911.397156	2267.644775	979.904297	5.051227
268.328766	912.511719	2270.022461	975.000305	4.603174
268.701569	906.716125	2277.526855	970.839355	4.677759
269.074371	906.939026	2296.399658	971.062317	4.614977
269.447144	910.505554	2342.541992	984.139648	5.141915
269.819885	911.620117	2416.101563	990.083801	5.215331
270.192596	911.843018	2523.320313	991.346863	4.933600
270.565277	907.384766	2670.588135	991.569763	4.774549
270.937927	908.202148	2812.358154	989.043457	4.245519
271.310577	904.041199	2922.845947	1004.275574	4.965036
271.683136	904.784180	2979.093018	1004.498474	4.807109
272.055725	901.589172	2992.021729	1015.643860	5.456033
272.428284	901.663513	2964.827148	1012.077393	5.351678
272.800812	901.737793	2915.787354	1009.031006	5.327238
273.173279	901.886414	2842.376221	999.148743	5.012257
273.545776	900.994812	2804.555908	999.074402	5.152427
273.918152	901.514893	2764.803955	997.811218	5.168083
274.290558	904.487000	2763.021240	999.891785	5.133335
274.662964	905.452942	2738.798096	998.034180	5.049853
275.035278	902.555176	2755.516357	999.297363	5.220951
275.407593	907.236267	2785.460205	1003.532532	5.126986
275.779907	906.195984	2853.150391	1005.761658	5.113919
276.152161	907.384766	2912.963867	1015.718262	5.401607
276.524384	897.056702	2960.666260	1013.117676	5.624173
276.896606	899.285828	2994.325439	1011.557312	5.358920
277.268799	900.474670	2998.635010	1009.625488	5.202215
277.640930	901.217773	3007.253906	1012.374573	5.278010
278.013031	904.561340	3017.210693	1002.195129	4.621391
278.385162	903.818298	3042.399170	989.860840	4.023348
278.757233	901.069092	3051.984375	988.746277	4.076273
279.129272	899.954590	3071.748779	1000.188904	4.615277
279.501282	899.731628	3105.705078	1010.739929	5.032169
279.873230	905.378662	3175.475342	1013.414795	4.759099
280.245178	911.025696	3283.883057	1017.872864	4.502891
280.617126	917.341370	3417.182373	1022.479675	4.205800
280.988983	918.233093	3555.756836	1026.120605	4.090485
281.360870	914.369324	3686.306641	1031.396118	4.221841
281.732697	912.660339	3783.643311	1030.652954	4.109833
282.104492	911.917236	3835.803711	1028.646851	3.992276
282.476288	914.146423	3831.196533	1022.256836	3.706156
282.848053	912.214539	3815.964844	1027.978149	3.986693
283.219757	911.620117	3812.769775	1028.275391	4.021001
283.591461	909.985413	3805.191406	1030.430054	4.160141
283.963135	907.830750	3818.119873	1022.628357	3.944543
284.334747	907.087646	3878.601807	1017.204163	3.705738
284.706360	900.771912	3982.997314	1018.095886	3.806470
285.077942	897.651123	4096.309082	1025.526123	3.997770
285.449524	901.737793	4188.444336	1037.934692	4.143872
285.821014	900.177429	4207.986328	1036.894531	4.133162
286.192535	903.075256	4252.790527	1043.061646	4.179053
286.563995	896.536621	4252.790527	1041.872681	4.330306
286.935425	898.691406	4246.771973	1049.154419	4.494008
287.306824	905.007080	4154.339355	1038.232056	4.100072
287.678223	912.957520	4069.114258	1031.247437	3.747910
288.049561	915.781006	4006.625244	1028.126831	3.634794
288.420898	910.654114	3983.368408	1023.742859	3.680418
288.792145	913.626282	4018.959717	1033.550903	3.861892
289.163452	912.660339	4134.500488	1030.207153	3.648437
289.534668	912.808899	4292.839355	1037.414551	3.686524
289.905914	908.870911	4434.980957	1036.151367	3.609656
290.277039	914.220703	4534.249512	1046.256714	3.647375
290.648193	910.208313	4581.431641	1057.624878	4.015461
291.019318	903.743958	4572.960938	1061.860229	4.309265
291.390381	901.886414	4503.784668	1058.739502	4.354734
291.761475	905.007141	4411.426758	1054.652954	4.267767
292.132507	910.654236	4352.875977	1055.990356	4.222160
292.503510	901.143494	4340.616211	1056.510376	4.517171
292.874481	905.378662	4400.652832	1054.429810	4.264362
293.245422	907.236267	4506.088379	1059.333862	4.226281
293.616364	912.734680	4680.476563	1067.135620	4.097970
293.987213	910.208313	4840.153809	1079.841431	4.316424
294.358093	906.567566	4956.140137	1076.646362	4.199920
294.728943	908.202148	5062.838867	1072.262573	3.948851
295.099731	910.356873	5194.503418	1068.547485	3.692465
295.470490	910.133972	5331.814941	1073.674316	3.698601
295.841248	905.007141	5464.296875	1083.185059	3.908019
296.211975	903.298157	5576.196777	1086.603027	3.922723
296.582642	904.264099	5709.569824	1096.931152	4.009465
296.953308	904.412659	5781.643066	1094.033325	3.887876
297.323883	907.979187	5770.943848	1095.667847	3.859552
297.694519	902.183594	5639.873535	1083.407959	3.825163
298.065063	910.282532	5491.268066	1081.699097	3.741915
298.435608	903.743958	5310.118652	1071.370850	3.804191
298.806122	896.239319	5126.516113	1071.147949	4.134685
299.176575	900.325989	4927.979004	1066.912720	4.136075
299.547028	905.007141	4815.781738	1069.290527	4.200789
299.917450	913.106201	4759.460938	1065.203735	3.954329
300.287872	908.499329	4750.247559	1064.535156	4.061584
300.658234	905.081543	4722.829590	1064.237915	4.168855
301.028564	907.384827	4699.052246	1066.392700	4.193614
301.398865	906.047424	4647.337891	1060.597046	4.130918
301.769135	906.196045	4590.199219	1054.950073	4.037837
302.139374	905.452942	4539.079590	1057.922119	4.196061
302.509583	895.719299	4489.964844	1063.494751	4.667891
302.879791	897.428223	4420.417480	1065.500977	4.770743
303.249939	901.366272	4371.897949	1057.401978	4.496017
303.620087	911.471497	4335.117676	1050.491821	4.060593
303.990173	910.356934	4337.272949	1047.445435	4.000346
304.360260	910.579834	4326.201660	1043.210205	3.883052
304.730286	905.229980	4312.530273	1051.309204	4.287242
305.100281	898.914307	4302.053223	1057.699219	4.665837
305.470276	893.118652	4330.659668	1067.358521	5.068736
305.840179	894.456116	4362.906738	1065.203857	4.922882
306.210144	899.657410	4403.848145	1071.148071	4.893874
306.579987	904.338379	4423.314941	1069.587769	4.695951
306.949890	909.836914	4466.262207	1066.021118	4.391606
307.319702	908.573730	4555.722656	1071.519531	4.467758
307.689484	909.688232	4673.715332	1089.277832	4.771209
308.059265	916.152527	4802.630371	1114.317993	5.098845
308.429016	918.233093	4897.069336	1142.627319	5.639695
308.798737	920.313477	4971.595215	1178.961304	6.384346
309.168396	905.675842	5032.746582	1234.837036	7.975661
309.538055	902.406555	5069.823242	1280.384521	9.069839
309.907684	892.524231	5069.674805	1324.000244	10.329434
310.277313	897.131042	5084.312012	1369.622070	11.284227
310.646851	901.143372	5071.829590	1432.482300	12.739845
311.016388	907.830566	5064.473145	1498.908813	14.220088
311.385895	905.007141	4996.263184	1559.391235	15.994699
311.755371	905.675842	4930.431641	1614.523804	17.612198
312.124817	907.310547	4863.855957	1665.272583	19.157167
312.494232	911.322815	4804.934082	1705.619141	20.399990
312.863617	906.864746	4780.265625	1751.166626	21.797430
313.232971	900.251770	4804.339844	1807.190918	23.230499
313.602295	899.360168	4883.323730	1880.007446	24.614864
313.971619	895.645020	4987.792969	1944.056274	25.620071
314.340820	897.874023	5022.641113	1980.093262	26.237099
314.710083	899.360168	5028.213867	1987.969360	26.365894
315.079285	907.607727	4951.162109	1964.935547	26.148476
315.448486	911.620056	4873.218262	1938.037964	25.909189
315.817596	909.390930	4723.201172	1898.137329	25.925421
316.186707	904.784241	4579.054199	1858.534058	25.957533
316.555786	907.087585	4472.949219	1822.348511	25.667315
316.924866	912.808899	4415.884766	1824.874878	26.036146
317.293884	918.530273	4422.126465	1850.063477	26.587915
317.662872	914.443665	4445.605957	1907.871094	28.133156
318.031830	913.329102	4509.506348	1953.864624	28.934490
318.400757	911.248535	4545.097656	1991.981812	29.740730
318.769684	905.007141	4576.229980	2010.557251	30.113945
319.138550	903.521057	4565.084961	2008.922729	30.189329
319.507416	901.366272	4539.524902	1991.461426	29.962828
319.876190	906.195984	4483.797852	1985.963257	30.181316
320.244995	908.499329	4397.160645	1997.554321	31.216986
320.613770	908.425110	4349.161133	2042.581665	32.962612
320.982483	910.282654	4342.622559	2114.432373	35.082470
321.351166	902.629395	4394.634277	2213.329346	37.534309
321.719818	895.867920	4458.237793	2320.845459	40.000832
322.088440	894.084656	4582.694824	2437.872314	41.852825
322.457062	894.902039	4755.596680	2568.867920	43.359188
322.825623	903.372559	4959.111816	2712.123779	44.597324
323.194183	904.264099	5104.968262	2841.633057	46.120098
323.562653	898.914307	5203.567871	2952.121094	47.697380
