Jaz Data File
++++++++++++++++++++++++++++++++++++
Date: Fri Jun 04 11:42:55 2021
User: jaz
Dark Spectrum Present: Yes
Reference Spectrum Present: Yes
Processed Spectrum Present: Yes
Spectrometers: JAZA3586
Integration Time (usec): 32700 (JAZA3586)
Spectra Averaged: 10 (JAZA3586)
Boxcar Smoothing: 1 (JAZA3586)
Correct for Electrical Dark: No (JAZA3586)
Strobe/Lamp Enabled: Yes (JAZA3586)
Correct for Detector Non-linearity: No (JAZA3586)
Correct for Stray Light: No (JAZA3586)
Number of Pixels in Processed Spectrum: 2048
>>>>>Begin Processed Spectral Data<<<<<
W	D	R	S	P
191.335022	0.000000	0.000000	0.000000	0.000000
191.713211	403.835297	413.123077	401.829132	-21.600042
192.091385	811.311340	818.147278	813.317627	29.349108
192.469528	1227.035034	1231.419067	1226.960938	-1.690149
192.847641	1239.889526	1226.886597	1233.648071	48.000374
193.225739	1250.737671	1243.307495	1240.781128	134.001450
193.603790	1255.344482	1251.777954	1245.610718	272.919861
193.981842	1258.465210	1273.177124	1258.465088	-0.000830
194.359863	1257.573608	1281.276123	1256.979126	-2.508099
194.737854	1264.186523	1280.681763	1260.991455	-19.369638
195.115829	1271.096680	1273.622925	1262.848999	-326.479828
195.493774	1282.242065	1270.576538	1263.814941	157.962204
195.871704	1281.424683	1272.656982	1263.443359	205.085968
196.249603	1276.817993	1278.749878	1265.226685	-600.000000
196.627457	1269.982178	1276.297852	1266.192627	-60.002319
197.005310	1269.090454	1275.109009	1267.455688	-27.162096
197.383133	1273.994507	1267.158691	1261.140015	188.046219
197.760910	1276.520630	1259.802612	1266.861450	57.777065
198.138687	1275.480469	1264.335083	1267.010132	75.998596
198.516449	1270.353516	1266.044067	1272.731323	-55.176613
198.894180	1268.644653	1274.291626	1264.112183	-80.263725
199.271866	1269.759155	1272.582642	1257.424927	-436.843933
199.649536	1270.204956	1278.972778	1258.688110	-131.353546
200.027191	1267.084351	1277.783813	1264.112183	-27.778666
200.404816	1259.951294	1277.189453	1263.369141	19.827213
200.782410	1252.892456	1284.619751	1258.688110	18.267092
201.159988	1255.641724	1290.563843	1256.830444	3.403919
201.537537	1262.403198	1298.142822	1255.715942	-18.711040
201.915070	1270.279419	1294.130493	1254.007080	-68.224762
202.292557	1269.536377	1303.121094	1250.366211	-57.080029
202.670029	1261.734619	1310.848633	1260.248535	-3.025784
203.047485	1254.081421	1316.941406	1257.796509	5.910100
203.424911	1256.979126	1313.151978	1269.982056	23.148067
203.802292	1257.127563	1309.511230	1265.746826	16.454103
204.179688	1262.031738	1306.316284	1264.557983	5.704575
204.557037	1254.601440	1312.631958	1260.322754	9.859146
204.934357	1252.669556	1313.894897	1261.585938	14.563221
205.311661	1252.446655	1315.158081	1272.136841	31.398083
205.688934	1252.372437	1306.464722	1262.180298	18.131720
206.066177	1249.028809	1301.040649	1260.842896	22.714226
206.443390	1242.192871	1294.799316	1253.041138	20.621553
206.820587	1241.524292	1296.656860	1258.167969	30.188467
207.197769	1240.706909	1299.257324	1254.824341	24.111582
207.574921	1243.456177	1299.554565	1251.926392	15.098856
207.952042	1243.307495	1294.724854	1247.022583	7.225358
208.329147	1252.149536	1292.495850	1243.827515	-20.626472
208.706223	1254.006958	1297.994263	1255.344360	3.040428
209.083267	1254.675781	1302.898193	1261.437256	14.021436
209.460297	1252.520996	1306.539063	1254.155640	3.026105
209.837280	1252.669556	1309.659668	1240.632446	-21.121399
210.214264	1252.075195	1309.956909	1235.877319	-27.984444
210.591217	1252.892456	1299.406128	1251.406494	-3.194678
210.968124	1249.400269	1293.907593	1249.251709	-0.333787
211.345016	1248.508667	1294.427734	1254.453003	12.945246
211.721893	1246.428101	1297.548340	1255.790405	18.314281
212.098724	1249.177368	1288.706421	1260.842896	29.511274
212.475555	1249.994629	1282.242065	1263.963501	43.317776
212.852356	1252.000854	1298.068481	1262.180176	22.096474
213.229126	1251.555054	1306.093262	1263.369019	21.661814
213.605865	1254.972900	1307.505005	1258.762329	7.213548
213.982590	1256.533325	1294.130493	1255.418701	-2.964649
214.359283	1253.115356	1291.009766	1252.297974	-2.157001
214.735931	1248.434326	1292.941650	1245.165039	-7.345504
215.112579	1247.542603	1299.182983	1240.261108	-14.100389
215.489197	1249.400269	1301.114868	1240.558228	-17.097765
215.865799	1251.034790	1305.944702	1243.753174	-13.261024
216.242355	1249.474609	1304.830200	1248.359985	-2.013571
216.618896	1251.406494	1304.830078	1244.496216	-12.934883
216.995407	1252.000854	1299.926147	1240.335205	-24.341322
217.371902	1251.109253	1292.941650	1244.347534	-16.163834
217.748367	1253.412720	1290.415405	1244.644897	-23.695097
218.124802	1252.892578	1298.588745	1245.685181	-15.772433
218.501236	1253.858398	1297.994141	1235.059937	-42.592377
218.877609	1248.137085	1305.052979	1235.431396	-22.323622
219.253983	1253.041138	1299.554565	1241.226929	-25.399567
219.630295	1247.394043	1310.477051	1244.719116	-4.240328
220.006592	1252.223755	1309.956909	1250.737671	-2.574056
220.382889	1250.217651	1307.579224	1247.839844	-4.145297
220.759140	1254.155640	1297.697021	1246.873901	-16.723719
221.135391	1255.270142	1298.737305	1247.765503	-17.265076
221.511581	1247.914185	1306.613159	1254.007080	10.379901
221.887772	1245.387939	1320.433472	1256.458984	14.752437
222.263931	1238.106323	1321.845337	1261.511597	27.950262
222.640060	1241.449829	1319.467773	1267.307251	33.142918
223.016159	1244.124878	1310.551392	1272.062500	42.057938
223.392212	1244.793457	1315.604004	1266.415649	30.535271
223.768265	1248.805786	1321.251099	1258.019409	12.718039
224.144302	1245.313599	1332.767944	1254.229980	10.195470
224.520294	1248.359985	1323.405762	1248.805786	0.594038
224.896286	1244.199097	1318.873413	1247.765625	4.776111
225.272217	1251.480835	1311.666016	1253.635498	3.580056
225.648148	1245.982422	1317.981812	1262.551880	23.013330
226.024048	1250.291870	1318.055908	1261.883179	17.105398
226.399902	1244.644897	1325.932007	1256.087524	14.076804
226.775772	1248.582886	1336.928833	1250.366211	2.018570
227.151581	1242.861694	1350.600586	1259.133911	15.103382
227.527374	1243.010254	1354.761597	1267.381470	21.808432
227.903137	1242.861694	1355.801636	1271.319458	25.197254
228.278870	1246.576660	1353.572510	1275.926392	27.430719
228.654572	1247.319702	1362.786133	1279.492920	27.863699
229.030273	1255.195801	1368.953247	1289.969604	30.568377
229.405930	1261.808716	1381.584839	1294.650757	27.419523
229.781555	1265.598267	1386.042969	1288.854980	19.309038
230.157181	1262.774658	1395.628052	1293.684692	23.266273
230.532761	1251.555054	1394.662109	1281.201782	20.716469
230.908325	1249.846069	1391.467163	1280.607422	21.720882
231.283859	1251.926636	1384.631226	1270.427856	13.941658
231.659332	1256.682007	1373.114258	1274.886108	15.634931
232.034821	1258.168091	1369.399048	1281.053223	20.574427
232.410263	1250.960571	1366.575562	1282.836548	27.570799
232.785690	1249.846069	1373.337280	1276.595093	21.660669
233.161087	1251.629395	1368.061646	1266.564209	12.827043
233.536469	1248.657227	1372.594238	1272.508423	19.244612
233.911804	1247.245483	1374.749023	1280.235962	25.874166
234.287140	1248.434448	1386.340210	1287.814819	28.556002
234.662430	1251.629272	1390.649780	1282.539307	22.234154
235.037704	1253.709839	1399.937500	1282.836548	19.918741
235.412933	1249.846069	1402.241089	1283.802368	22.281765
235.788162	1255.864624	1402.538086	1287.368896	21.479191
236.163345	1255.344482	1399.417358	1290.935425	24.703430
236.538513	1254.304321	1399.120117	1292.347168	26.269819
236.913635	1245.239380	1395.776489	1286.923096	27.689993
237.288742	1241.598511	1400.903442	1284.693970	27.052181
237.663834	1244.719116	1399.863281	1287.146118	27.346825
238.038879	1246.353882	1402.612305	1292.347168	29.434116
238.413910	1254.898560	1407.813477	1291.455566	23.906763
238.788910	1248.359985	1420.742188	1289.449341	23.836193
239.163879	1251.257813	1428.544312	1290.638306	22.212912
239.538834	1239.815308	1431.144897	1302.823853	32.931938
239.913757	1241.078247	1442.141602	1315.826904	37.176670
240.288651	1245.016235	1468.147461	1328.384155	37.362732
240.663528	1253.561157	1496.233887	1330.241577	31.598284
241.038361	1254.378540	1520.456543	1343.021729	33.314739
241.413177	1253.561157	1545.496460	1353.275513	34.156319
241.787979	1254.527222	1566.152710	1369.101929	36.766796
242.162735	1257.722168	1600.777710	1373.485840	33.744877
242.537476	1257.202148	1630.647461	1379.281372	32.689987
242.912170	1258.688110	1650.709351	1394.067749	34.533752
243.286865	1260.545654	1653.012695	1399.714722	35.460064
243.661514	1262.774780	1638.746582	1398.377319	36.067211
244.036148	1251.777832	1623.514526	1383.145142	35.338806
244.410751	1249.251587	1607.911011	1375.566040	35.218494
244.785339	1253.115356	1612.369141	1376.457886	34.332981
245.159882	1255.047241	1625.297852	1385.002808	35.099354
245.534378	1255.790405	1655.539063	1401.795288	36.524170
245.908890	1250.663452	1697.594360	1414.946777	36.758102
246.283356	1260.991577	1767.513184	1441.175659	35.572834
246.657791	1257.424927	1842.112915	1468.816284	36.154556
247.032196	1252.818115	1903.412720	1516.369995	40.509384
247.406586	1240.335327	1938.632324	1533.756714	42.019569
247.780960	1243.233154	1949.257690	1541.261230	42.212143
248.155289	1241.969971	1936.626099	1524.245972	40.635357
248.529602	1250.217529	1903.338501	1503.218384	38.737213
248.903870	1247.542603	1852.589722	1486.128540	39.432621
249.278122	1246.205200	1793.147461	1468.444702	40.633083
249.652344	1245.610840	1748.194336	1454.252930	41.513916
250.026550	1248.434448	1710.448608	1440.061035	41.476345
250.400711	1255.121582	1689.346680	1429.212891	40.092411
250.774857	1254.304199	1687.637695	1430.847534	40.740753
251.148987	1256.756104	1713.792358	1438.352051	39.733379
251.523071	1252.520874	1746.634155	1448.011353	39.563900
251.897125	1252.520996	1767.735962	1464.283691	41.101814
252.271164	1246.502441	1771.005249	1467.330078	42.102280
252.645187	1243.456055	1771.896973	1473.645874	43.560181
253.019165	1240.483887	1770.782349	1464.209351	42.188595
253.393112	1241.747070	1759.562866	1466.735718	43.449554
253.767044	1245.462280	1737.123413	1452.246704	42.058323
254.140930	1251.406372	1713.569336	1449.646118	42.893906
254.514801	1256.310425	1698.188843	1435.231445	40.491009
254.888657	1261.437256	1698.040039	1433.670898	39.448589
255.262466	1258.539429	1707.922363	1434.414063	39.136917
255.636276	1260.025513	1728.727173	1444.073242	39.267567
256.010010	1254.229980	1742.918945	1458.190918	41.736351
256.383759	1249.846069	1763.500854	1472.902710	43.425400
256.757446	1243.307373	1792.701660	1485.311401	44.049244
257.131134	1243.901733	1840.106812	1502.401001	43.357441
257.504791	1247.691284	1883.499634	1521.125366	43.005741
257.878418	1250.588989	1950.817871	1548.988770	42.614605
258.252014	1253.338257	2027.721191	1590.003906	43.475346
258.625580	1243.158691	2142.444580	1644.839355	44.666626
258.999115	1249.474487	2266.381592	1710.448730	45.331009
259.372650	1252.000854	2403.841553	1771.451172	45.097408
259.746124	1259.876953	2521.091309	1821.902710	44.562271
260.119598	1248.434204	2597.771729	1857.567993	45.143173
260.493042	1244.421997	2592.793457	1864.255249	45.969028
260.866425	1246.279663	2543.605225	1837.283325	45.555538
261.239838	1253.264038	2430.665039	1793.222046	45.860161
261.613159	1251.629272	2332.957031	1746.113892	45.729393
261.986511	1254.973022	2226.852539	1706.807739	46.490814
262.359802	1250.589233	2173.651611	1670.176758	45.456032
262.733063	1249.103149	2146.754150	1649.966187	44.656891
263.106293	1249.400269	2132.933838	1636.442993	43.806229
263.479523	1250.812012	2116.661621	1635.625854	44.443497
263.852692	1245.239380	2106.482178	1628.715698	44.525925
264.225861	1234.242554	2094.445068	1635.254272	46.618290
264.598969	1241.747070	2104.475830	1636.814819	45.792812
264.972076	1248.211426	2117.553467	1647.217163	45.897438
265.345154	1255.567383	2170.976807	1665.198242	44.748379
265.718201	1253.709839	2216.524414	1688.752319	45.184452
266.091217	1256.310547	2273.663086	1712.751953	44.865608
266.464203	1259.876953	2317.427490	1736.454712	45.064301
266.837158	1257.796387	2356.882324	1760.454468	45.734192
267.210114	1258.093628	2389.649902	1780.738892	46.188183
267.583038	1253.115356	2409.785889	1782.002075	45.724922
267.955902	1249.920410	2427.544189	1778.212769	44.860878
268.328766	1249.697510	2438.838135	1778.212524	44.445122
268.701569	1252.149536	2445.376953	1783.859741	44.560677
269.074371	1249.548950	2456.447998	1805.259155	46.044464
269.447144	1252.446655	2480.299072	1825.692383	46.686859
269.819885	1259.802612	2541.747314	1864.552612	47.174423
270.192596	1248.880127	2640.570068	1915.004272	47.864407
270.565277	1247.765625	2764.432617	1974.594727	47.922787
270.937927	1238.106323	2888.889648	2027.201172	47.801235
271.310577	1252.372437	2975.675049	2064.947021	47.152172
271.683136	1249.400391	3046.857422	2096.376953	47.120823
272.055725	1249.623169	3069.371094	2098.606201	46.653881
272.428284	1247.914185	3061.197998	2086.049072	46.221935
272.800812	1250.960571	3005.768311	2065.615479	46.424168
273.173279	1246.353882	2929.681885	2042.878906	47.318470
273.545776	1248.582886	2884.951904	2024.823608	47.436775
273.918152	1251.332153	2853.521484	2005.801880	47.089924
274.290558	1251.257935	2862.661133	2007.733765	46.945160
274.662964	1248.062866	2850.846680	2001.120728	46.984367
275.035278	1246.576782	2868.605225	2005.801880	46.807137
275.407593	1256.904785	2897.137451	2017.987671	46.400909
275.779907	1253.338257	2950.858398	2043.919312	46.572704
276.152161	1248.360107	3002.647217	2072.154297	46.958916
276.524384	1243.233154	3033.705811	2093.033447	47.462345
276.896606	1240.929688	3057.482666	2101.949707	47.398563
277.268799	1238.031982	3052.281494	2101.503906	47.593891
277.640930	1232.162109	3060.083252	2106.036377	47.806999
278.013031	1235.357056	3071.599854	2109.231445	47.590351
278.385162	1238.700562	3082.745361	2118.444824	47.707314
278.757233	1244.867798	3093.742432	2116.141602	47.124546
279.129272	1247.468384	3123.166260	2133.454102	47.234989
279.501282	1245.610840	3163.364014	2144.302490	46.861694
279.873230	1245.982300	3227.264404	2181.156494	47.200455
280.245178	1246.353882	3304.984619	2223.508789	47.466251
280.617126	1246.651001	3428.178955	2278.864502	47.316082
280.988983	1247.988525	3537.923828	2319.433838	46.789326
281.360870	1247.319702	3639.346924	2362.900879	46.637474
281.732697	1248.359985	3707.408447	2405.624756	47.061489
282.104492	1249.771851	3750.801025	2430.516357	47.210342
282.476288	1256.533325	3773.463623	2438.912354	46.977028
282.848053	1254.750122	3762.615479	2434.677490	47.049072
283.219757	1248.359985	3767.890869	2429.178955	46.866623
283.591461	1244.198975	3740.399170	2418.627686	47.048660
283.963135	1245.536499	3750.578369	2414.169678	46.651241
284.334747	1250.588989	3796.869141	2441.141602	46.756542
284.706360	1248.731567	3884.397705	2487.134766	46.986347
285.077942	1249.177246	3991.096436	2548.805908	47.398502
285.449524	1255.195801	4070.377686	2597.251709	47.672085
285.821014	1256.087524	4108.866211	2608.396973	47.403236
286.192535	1262.626099	4144.902832	2606.539307	46.626793
286.563995	1257.944946	4133.386230	2599.332031	46.649780
286.935425	1256.533325	4118.748535	2592.273193	46.668041
287.306824	1252.595215	4045.262939	2561.437744	46.867107
287.678223	1253.932739	3963.827393	2525.623779	46.927696
288.049561	1256.087524	3918.205078	2500.955322	46.762314
288.420898	1254.304199	3909.585938	2495.977295	46.762386
288.792145	1247.468384	3958.848877	2517.153564	46.827999
289.163452	1246.353882	4039.244385	2568.496338	47.339573
289.534668	1240.855469	4150.327148	2618.056396	47.335087
289.905914	1243.753296	4259.923828	2667.021729	47.187931
290.277039	1253.041016	4366.548340	2707.591064	46.717411
290.648193	1265.301025	4415.661621	2743.776611	46.930359
291.019318	1267.232788	4430.894043	2743.776611	46.671997
291.390381	1254.601440	4363.798340	2713.684082	46.927959
291.761475	1250.143188	4294.177246	2665.090088	46.482620
292.132507	1249.177368	4250.933105	2639.826904	46.327869
292.503510	1253.635620	4249.818359	2636.408936	46.151169
292.874481	1252.298096	4307.997559	2658.625732	46.023102
293.245422	1250.440552	4376.950684	2698.971924	46.330612
293.616364	1252.446655	4513.444824	2766.141846	46.418156
293.987213	1243.976196	4630.322754	2847.206055	47.343937
294.358093	1240.261108	4755.076660	2906.499268	47.406136
294.728943	1234.093872	4861.255371	2948.183594	47.257053
295.099731	1245.387939	4955.545898	2988.306885	46.976948
295.470490	1248.880127	5068.337402	3039.055664	46.869892
295.841248	1256.979126	5146.132324	3081.705322	46.918339
296.211975	1253.858398	5275.864746	3137.135010	46.824306
296.582642	1249.994751	5404.037109	3202.669922	47.006626
296.953308	1240.409668	5463.851074	3234.620117	47.217667
297.323883	1239.443726	5462.067871	3220.725830	46.920639
297.694519	1244.347656	5341.622559	3156.825439	46.676823
298.065063	1244.124756	5235.221191	3091.736328	46.293335
298.435608	1242.267212	5069.228516	3021.000000	46.478985
298.806122	1239.592285	4894.691406	2944.022461	46.631573
299.176575	1247.839966	4724.018066	2866.598877	46.567200
299.547028	1256.458984	4617.319824	2807.379639	46.146530
299.917450	1256.384644	4581.357422	2776.321045	45.712749
300.287872	1255.047241	4569.691895	2781.225342	46.043491
300.658234	1250.291870	4560.775391	2781.522461	46.253986
301.028564	1255.047241	4532.540039	2776.469727	46.420319
301.398865	1245.833618	4508.763184	2750.909912	46.126534
301.769135	1243.753296	4455.116699	2722.897705	46.059704
302.139374	1241.152710	4408.380371	2700.755615	46.084560
302.509583	1255.716064	4365.284668	2680.545166	45.820797
302.879791	1254.675781	4320.108887	2665.981689	46.039364
303.249939	1257.202026	4291.873535	2644.954102	45.729897
303.620087	1254.898682	4251.898926	2631.208008	45.922897
303.990173	1251.332153	4240.604980	2614.638428	45.606617
304.360260	1250.886230	4215.861816	2606.985352	45.737278
304.730286	1247.616943	4220.840332	2597.474609	45.400478
305.100281	1259.579590	4220.394531	2599.629150	45.259483
305.470276	1260.768677	4239.639160	2603.270264	45.067471
305.840179	1255.567505	4236.518066	2612.929443	45.534531
306.210144	1252.743896	4277.235840	2627.938477	45.468613
306.579987	1252.372314	4310.746582	2644.136475	45.506664
306.949890	1253.784058	4358.151855	2659.443115	45.280045
307.319702	1246.502441	4417.073730	2689.832764	45.522720
307.689484	1240.929810	4517.084961	2735.826172	45.629593
308.059265	1247.468384	4625.046875	2791.404541	45.711330
308.429016	1258.019409	4713.318848	2834.203125	45.616417
308.798737	1257.796509	4784.649414	2862.586670	45.502041
309.168396	1256.310547	4848.326660	2887.552490	45.412991
309.538055	1248.285767	4871.583496	2889.186768	45.287498
309.907684	1251.257813	4874.332520	2894.462646	45.353878
310.277313	1247.171143	4882.951660	2886.140625	45.078888
310.646851	1255.567383	4880.425293	2896.022705	45.255714
311.016388	1257.202026	4880.500000	2885.917236	44.951183
311.385895	1255.864502	4805.454102	2872.022705	45.530846
311.755371	1248.285645	4764.810547	2848.617920	45.508915
312.124817	1246.799683	4690.879395	2828.110107	45.913876
312.494232	1246.056641	4670.148926	2816.221436	45.856380
312.863617	1249.623169	4635.226563	2798.612061	45.752224
313.232971	1255.047363	4654.173828	2804.184570	45.574570
313.602295	1255.493164	4725.801758	2816.816162	44.990898
313.971619	1253.858521	4811.546875	2852.258545	44.928047
314.340820	1245.536621	4840.599121	2858.277100	44.859875
314.710083	1247.765625	4831.237305	2857.756836	44.928253
315.079285	1245.907959	4756.637207	2820.308350	44.845394
315.448486	1251.183472	4674.310059	2789.843994	44.948982
315.817596	1249.103027	4553.642090	2735.454834	44.979095
316.186707	1255.641724	4463.290039	2685.894775	44.588833
316.555786	1253.635620	4389.210449	2648.520508	44.485779
316.924866	1259.208252	4335.341309	2620.434082	44.251202
317.293884	1252.149414	4330.956543	2620.359619	44.439621
317.662872	1253.338257	4342.548340	2620.805664	44.265926
318.031830	1248.657227	4387.204102	2638.341064	44.277939
