Jaz Data File
++++++++++++++++++++++++++++++++++++
Date: Fri Jun 04 13:45:56 2021
User: jaz
Dark Spectrum Present: Yes
Reference Spectrum Present: Yes
Processed Spectrum Present: Yes
Spectrometers: JAZA3586
Integration Time (usec): 386000 (JAZA3586)
Spectra Averaged: 10 (JAZA3586)
Boxcar Smoothing: 1 (JAZA3586)
Correct for Electrical Dark: No (JAZA3586)
Strobe/Lamp Enabled: Yes (JAZA3586)
Correct for Detector Non-linearity: No (JAZA3586)
Correct for Stray Light: No (JAZA3586)
Number of Pixels in Processed Spectrum: 2048
>>>>>Begin Processed Spectral Data<<<<<
W	D	R	S	P
191.335022	0.000000	0.000000	0.000000	0.000000
191.713211	286.065460	285.248138	278.932404	872.735413
192.091385	572.502502	577.257874	565.443665	-148.439270
192.469528	854.406982	861.837219	854.406921	-0.000821
192.847641	859.682556	865.923828	869.713318	160.716629
193.225739	885.911377	882.047607	884.722473	30.770567
193.603790	921.205139	908.276550	905.155762	124.138664
193.981842	931.979004	931.904785	912.437439	26329.687500
194.359863	932.573425	939.037842	925.737610	-105.745285
194.737854	946.170898	946.913879	934.951172	-1510.096069
195.115829	950.108887	942.530029	936.660095	177.451431
195.493774	946.170837	931.384583	930.641602	105.024811
195.871704	932.499207	924.103027	913.477600	226.550751
196.249603	954.121277	933.465088	927.966614	126.619019
196.627457	952.337952	942.604309	929.749939	232.061249
197.005310	948.399902	940.300964	935.174011	163.304016
197.383133	928.486816	932.424988	931.681824	81.129211
197.760910	946.839539	940.375305	945.279236	24.137476
198.138687	946.839600	944.536194	952.040710	-225.800888
198.516449	949.663086	944.164612	941.712708	144.592453
198.894180	927.966614	930.715820	922.319763	-205.399292
199.271866	925.291748	933.687988	916.152588	-108.848244
199.649536	922.765442	935.174011	918.158875	-37.124081
200.027191	932.870667	943.793030	924.102966	-80.272919
200.404816	924.325867	940.300842	927.446533	19.534718
200.782410	923.880066	954.046875	936.957336	43.349865
201.159988	922.616882	964.077820	936.957336	34.587868
201.537537	931.756165	977.377991	943.570313	25.895824
201.915070	928.561218	968.610352	937.997559	23.561909
202.292557	920.685059	963.780579	935.025391	33.275692
202.670029	919.719177	959.396729	931.681824	30.149660
203.047485	921.502441	963.483398	939.335022	42.477783
203.424911	920.016357	963.929199	951.520691	71.742874
203.802292	913.997803	969.353333	950.034607	65.100639
204.179688	909.465332	967.867249	939.186340	50.890469
204.557037	912.363098	964.597961	933.910889	41.251740
204.934357	925.737610	956.350342	948.845703	75.485237
205.311661	936.288574	955.161438	951.149170	78.740547
205.688934	933.242188	959.396729	950.777649	67.045570
206.066177	919.570496	957.019043	930.492981	29.166647
206.443390	908.796631	960.436951	929.155457	39.424282
206.820587	908.870911	949.365906	925.663269	41.467739
207.197769	923.508545	966.678406	940.672424	39.758942
207.574921	926.332031	963.706299	948.548523	59.443283
207.952042	931.533203	973.514221	942.530029	26.194757
208.329147	931.236023	965.489563	939.112122	22.993532
208.706223	1056.881958	1091.878540	1054.058472	-8.067892
209.083267	1059.556763	1097.971313	1071.222290	30.367470
209.460297	1049.600220	1098.119995	1067.878784	37.672401
209.837280	920.759277	970.393555	949.291565	57.485046
210.214264	906.344543	961.179993	939.335022	60.162685
210.591217	898.617126	952.189392	925.960510	51.040184
210.968124	907.384827	968.387390	931.310303	39.220444
211.345016	922.245422	974.183044	941.861267	37.768085
211.721893	922.839844	977.526611	950.926270	51.358723
212.098724	917.638672	957.390625	950.851868	83.551102
212.475555	922.542664	960.214111	951.669250	77.317406
212.852356	933.390686	959.248230	951.817810	71.264015
213.229126	940.003723	970.170593	947.508301	24.876884
213.605865	923.880066	955.904480	924.177307	0.928171
213.982590	911.768738	956.053040	918.753174	15.771811
214.359283	899.805969	953.155273	911.768738	22.423477
214.735931	895.942200	960.511230	919.496094	36.478622
215.112579	900.400391	967.644287	930.864502	45.303905
215.489197	901.440613	968.610352	931.681824	45.022076
215.865799	909.168152	980.275879	933.539368	34.273655
216.242355	903.818298	971.359558	928.338196	36.303585
216.618896	918.307312	983.768066	941.712708	35.754852
216.995407	915.409424	969.873352	936.734436	39.154377
217.371902	914.889343	968.387390	929.378418	27.083372
217.748367	902.183594	955.978821	923.508484	39.640858
218.124802	902.852356	961.551514	930.567200	47.215061
218.501236	903.595398	957.539124	931.904785	52.479481
218.877609	908.499329	960.288391	927.000732	35.724541
219.253983	904.858582	960.065430	931.384583	48.048389
219.630295	903.669617	983.247864	944.461853	51.260536
220.006592	900.846191	991.644043	951.594910	55.891983
220.382889	907.533386	998.554199	948.399963	44.898056
220.759140	914.146301	988.746277	944.387634	40.537994
221.135391	910.877014	994.244690	947.211121	43.582966
221.511581	903.669739	994.913391	947.211121	47.719902
221.887772	899.508789	1005.092957	948.622864	46.516514
222.263931	911.248535	1011.780212	956.127380	44.641495
222.640060	924.994568	1017.947266	967.867249	46.123116
223.016159	926.852112	1022.999817	967.941589	42.735786
223.392212	914.220703	1022.033875	954.046936	36.940044
223.768265	899.434387	1027.532349	945.576477	36.020939
224.144302	892.672913	1027.532349	937.031555	32.892502
224.520294	893.787415	1023.668640	938.443359	34.382141
224.896286	909.242432	1033.179321	944.981995	28.836905
225.272217	919.124695	1041.947144	954.938660	29.159136
225.648148	927.595215	1066.392578	962.145996	24.892967
226.024048	909.019470	1065.798218	958.282227	31.421833
226.399902	903.743958	1077.612305	954.864258	29.401730
226.775772	894.307556	1072.708374	949.885925	31.153652
227.151581	910.431152	1098.194214	948.845703	20.459057
227.527374	903.669617	1127.469360	956.053162	23.406437
227.903137	910.579773	1175.394897	966.826965	21.240173
228.278870	908.127869	1238.329224	978.046692	21.174603
228.654572	914.369324	1308.396729	986.071472	18.197248
229.030273	909.688171	1396.891235	993.130188	17.126743
229.405930	901.589172	1473.497192	1003.086731	17.747183
229.781555	906.121765	1537.992065	1013.191895	16.944954
230.157181	908.276550	1551.960938	1013.563416	16.356909
230.532761	904.338379	1529.001343	1003.532532	15.879627
230.908325	895.570618	1470.748047	997.142517	17.659229
231.283859	892.598572	1427.578125	993.278809	18.819454
231.659332	899.434387	1381.139038	991.867004	19.188650
232.034821	902.778015	1356.321899	983.396484	17.775230
232.410263	903.298157	1334.996948	983.619385	18.605850
232.785690	899.508728	1312.037476	983.916687	20.461109
233.161087	903.075195	1299.851685	990.009521	21.910151
233.536469	904.264099	1280.235840	991.198303	23.122538
233.911804	907.161865	1289.449463	998.331360	23.848406
234.287140	909.688171	1298.291382	997.142395	22.504761
234.662430	912.363098	1324.446045	999.817383	21.222496
235.037704	912.734619	1341.981445	1007.470520	22.070263
235.412933	901.514954	1348.000000	1009.848328	24.263607
235.788162	893.044434	1346.365356	996.399597	22.799557
236.163345	900.549011	1348.371460	992.015686	20.424763
236.538513	908.053650	1364.792358	998.628601	19.830803
236.913635	908.722351	1371.108032	1018.467346	23.734514
237.288742	901.217773	1377.423828	1023.148438	25.604601
237.663834	898.171326	1372.668457	1025.303223	26.792974
238.038879	899.880188	1375.937866	1023.594238	25.987198
238.413910	898.394226	1389.683716	1022.999817	25.362967
238.788910	899.285828	1402.538208	1024.114380	24.804363
239.163879	903.595398	1417.770142	1025.600464	23.728327
239.538834	908.573669	1425.051880	1031.024780	23.708862
239.913757	914.294983	1469.336304	1036.968872	22.101757
240.288651	916.375488	1509.756836	1050.714844	22.639633
240.663528	908.127869	1562.214478	1064.980835	23.980459
241.038361	897.725403	1609.619751	1073.971558	24.757347
241.413177	897.948425	1708.219604	1095.816528	24.419985
241.787979	899.508789	1819.970825	1115.209473	23.433958
242.162735	903.818359	1958.619629	1141.809937	22.562693
242.537476	896.833801	2076.760986	1158.676636	22.191439
242.912170	919.050293	2205.007568	1181.264648	20.390596
243.286865	924.920227	2262.815186	1199.245972	20.504280
243.661514	924.697327	2259.768799	1195.307861	20.269365
244.036148	912.883118	2186.951904	1188.694946	21.648109
244.410751	914.740784	2082.259521	1171.605347	22.000893
244.785339	916.747009	1999.040405	1168.707520	23.280239
245.159882	913.626221	1949.777710	1170.862305	24.826107
245.534378	916.003906	1986.854858	1193.821899	25.943666
245.908890	913.477600	2072.005859	1223.468628	26.757311
246.283356	907.236145	2235.694580	1256.458984	26.287825
246.657791	888.214661	2451.172607	1288.409180	25.604944
247.032196	896.833801	2719.405029	1334.328247	24.004244
247.406586	900.994690	2953.755859	1375.640625	23.122316
247.780960	911.694336	3110.163086	1404.321289	22.407730
248.155289	900.325989	3134.237305	1391.615601	21.992350
248.529602	897.725403	3042.547852	1350.452026	21.107883
248.903870	901.143372	2861.620850	1310.625854	20.886875
249.278122	904.784180	2650.155273	1262.403198	20.489569
249.652344	897.725525	2462.020752	1234.391113	21.521872
250.026550	896.908203	2311.557861	1209.499634	22.096739
250.400711	916.226868	2211.323242	1216.632690	23.195633
250.774857	924.103027	2137.243408	1215.666870	24.033810
251.148987	927.298035	2105.442139	1219.679077	24.817087
251.523071	907.904968	2105.293701	1224.508911	26.441200
251.897125	926.629211	2160.351807	1253.486816	26.493605
252.271164	916.003906	2223.211914	1265.375366	26.726540
252.645187	912.808899	2283.694092	1266.712769	25.815718
253.019165	892.524231	2297.291748	1240.632446	24.780485
253.393112	920.610657	2290.455566	1249.028687	23.974833
253.767044	925.663269	2211.546143	1237.437378	24.245920
254.140930	928.858337	2130.110352	1240.112427	25.910809
254.514801	910.356934	2040.947266	1214.626587	26.912458
254.888657	911.099915	1997.777344	1210.391235	27.541872
255.262466	914.815125	1962.334961	1198.428467	27.074749
255.636276	923.285645	1973.926147	1220.273560	28.267321
256.010010	924.845947	1996.365601	1245.536499	29.928574
256.383759	921.948181	2038.272339	1267.158691	30.923857
256.757446	910.059753	2080.996338	1272.805542	30.979116
257.131134	906.493225	2157.973877	1296.508179	31.164280
257.504791	902.629456	2259.025391	1329.795776	31.492744
257.878418	903.521057	2365.352783	1369.324707	31.864382
258.252014	911.471436	2515.964600	1411.974609	31.193850
258.625580	915.558105	2692.581787	1479.292969	31.723543
258.999115	906.195984	2939.787109	1553.001343	31.806068
259.372650	900.103210	3214.038330	1633.991089	31.716011
259.746124	892.004150	3535.992188	1703.389771	30.687946
260.119598	899.211426	3831.642578	1754.510132	29.166882
260.493042	898.096924	4030.105225	1766.918579	27.740082
260.866425	903.669617	4079.516602	1737.717773	26.262228
261.239838	902.926575	3933.289063	1674.857544	25.473221
261.613159	903.669678	3662.158203	1597.434204	25.150169
261.986511	904.264160	3344.142578	1537.843384	25.967655
262.359802	912.734619	3084.677490	1497.348267	26.916622
262.733063	908.425049	2920.096924	1479.515747	28.388859
263.106293	913.626221	2820.679688	1464.655273	28.894264
263.479523	911.174255	2762.203857	1457.596558	29.519913
263.852692	923.508545	2723.714600	1449.348999	29.210014
264.225861	917.712952	2684.185791	1447.491333	29.990746
264.598969	921.205139	2666.427490	1452.321167	30.432570
264.972076	919.198975	2672.297607	1455.590332	30.596758
265.345154	926.777832	2719.108154	1486.128784	31.208029
265.718201	915.112305	2767.107422	1506.264648	31.919758
266.091217	927.075012	2861.174561	1568.679077	33.173267
266.464203	927.223633	2945.731201	1591.712891	32.919830
266.837158	928.858215	3059.340088	1620.691040	32.473068
267.210114	906.716125	3136.391846	1624.108765	32.174751
267.583038	899.583069	3201.406982	1638.375000	32.095936
267.955902	908.350769	3235.289063	1642.981812	31.570715
268.328766	910.356934	3226.372803	1637.929199	31.414822
268.701569	906.790344	3227.635986	1637.334839	31.477512
269.074371	891.855652	3230.310791	1640.009766	31.993521
269.447144	898.171326	3265.084229	1674.486206	32.798626
269.819885	903.223877	3318.359375	1712.900757	33.525112
270.192596	916.003906	3419.634033	1786.088867	34.752937
270.565277	926.109070	3577.081299	1867.301758	35.503681
270.937927	917.787170	3756.819580	1938.780884	35.962734
271.310577	914.146301	3973.041016	1987.672241	35.095222
271.683136	899.657410	4175.367188	2011.151855	33.931408
272.055725	901.440674	4344.777344	2022.891602	32.568726
272.428284	899.211609	4382.151855	2011.597656	31.938131
272.800812	897.874023	4332.071777	1982.025024	31.569265
273.173279	907.087585	4185.843750	1952.081055	31.871641
273.545776	906.493164	4063.467529	1932.985352	32.515064
273.918152	916.152527	3939.678955	1914.855469	33.031063
274.290558	911.620117	3880.682861	1886.546265	32.836159
274.662964	917.861511	3820.794678	1872.874390	32.898205
275.035278	904.264099	3775.395752	1863.660767	33.415279
275.407593	909.391052	3769.525391	1898.508789	34.582912
275.779907	911.843018	3831.568359	1941.455688	35.264027
276.152161	917.341370	3925.932861	1979.201538	35.294258
276.524384	915.632385	4015.319092	1989.826782	34.654930
276.896606	914.889404	4067.628174	1992.576050	34.182556
277.268799	916.672668	4114.661621	2009.145508	34.161247
277.640930	909.465271	4123.949219	2023.485840	34.656281
278.013031	907.533447	4136.432617	2028.166992	34.706364
278.385162	907.310547	4116.073730	2008.476929	34.317471
278.757233	907.904968	4103.516602	2008.922729	34.454056
279.129272	901.737793	4085.535156	2021.554077	35.172348
279.501282	893.416016	4097.200684	2047.560059	36.024395
279.873230	895.199219	4162.141113	2092.141846	36.638016
280.245178	897.948425	4276.790039	2152.698486	37.135509
280.617126	901.589172	4452.070313	2238.518311	37.654873
280.988983	896.388000	4626.607422	2306.208008	37.794559
281.360870	908.647949	4806.791504	2374.789307	37.611271
281.732697	906.567444	4952.499512	2415.655762	37.298904
282.104492	914.889465	5077.179199	2439.209717	36.622158
282.476288	904.487122	5152.967773	2428.881592	35.880936
282.848053	912.363098	5184.026855	2416.398682	35.209599
283.219757	905.898743	5212.261230	2405.476318	34.822376
283.591461	912.288757	5168.868652	2407.185303	35.119659
283.963135	910.951355	5133.129395	2422.194580	35.792973
284.334747	920.239258	5094.343262	2453.178955	36.724998
284.706360	913.849121	5159.729492	2502.664307	37.420158
285.077942	921.799561	5298.007324	2562.180664	37.484074
285.449524	926.406311	5453.820313	2611.294922	37.215256
285.821014	924.846008	5558.214844	2612.112305	36.415543
286.192535	913.180420	5681.260254	2625.709717	35.916538
286.563995	900.325989	5760.169922	2619.393799	35.372906
286.935425	893.936035	5813.890625	2621.474365	35.112892
287.306824	898.171326	5744.343750	2569.462158	34.486820
287.678223	898.691406	5625.458984	2521.982666	34.342522
288.049561	913.106140	5498.550293	2505.562012	34.728497
288.420898	906.716125	5361.535645	2492.484863	35.596703
288.792145	913.106140	5330.551758	2521.462891	36.409199
289.163452	907.533447	5360.940918	2558.242920	37.066216
289.534668	914.666504	5490.302246	2636.111816	37.621990
289.905914	908.499329	5628.951172	2695.702637	37.860855
290.277039	915.186584	5819.240234	2758.860107	37.594891
290.648193	923.434265	6011.089844	2810.277588	37.086693
291.019318	919.198914	6128.860840	2806.785156	36.232410
291.390381	909.911133	6132.649902	2767.033447	35.558399
291.761475	900.177490	6028.031250	2684.334717	34.793453
292.132507	903.075195	5926.533203	2661.523438	35.004738
292.503510	901.217712	5821.395020	2647.331543	35.488838
292.874481	930.492981	5818.274902	2715.987305	36.529747
293.245422	937.551758	5825.036621	2768.816650	37.468452
293.616364	944.833313	5943.846191	2857.237061	38.255630
293.987213	922.245300	6109.838379	2910.809326	38.333073
294.358093	922.393982	6327.248535	2971.737305	37.916714
294.728943	906.864746	6551.939453	3010.969482	37.273285
295.099731	897.799805	6726.550781	3063.649658	37.158043
295.470490	896.908203	6901.607910	3132.974609	37.238605
295.841248	914.963684	7013.359375	3193.679688	37.365829
296.211975	909.688171	7130.980957	3258.099854	37.747967
296.582642	902.852356	7278.992188	3320.068359	37.910339
296.953308	896.685242	7435.175781	3350.086670	37.522442
297.323883	903.149597	7541.280762	3326.384033	36.504768
297.694519	910.579895	7536.673340	3258.099854	35.428417
298.065063	921.576660	7448.327637	3190.410156	34.762066
298.435608	922.468323	7245.555176	3104.442139	34.508049
298.806122	921.353821	6955.626465	3006.213867	34.550316
299.176575	913.700623	6618.812500	2914.301514	35.066811
299.547028	918.158691	6387.433594	2856.939453	35.448589
299.917450	912.883240	6240.314453	2839.478516	36.163681
300.287872	902.629456	6169.206543	2841.707764	36.818569
300.658234	894.158936	6097.058594	2832.494141	37.254906
301.028564	902.109375	6028.848145	2807.528320	37.166298
301.398865	910.431335	5983.671875	2774.092041	36.735111
301.769135	913.997864	5929.134277	2753.436279	36.677738
302.139374	909.539551	5905.580078	2725.720947	36.352417
302.509583	899.731628	5867.686035	2689.981445	36.035954
302.879791	899.657410	5801.259277	2655.133545	35.814331
303.249939	898.319885	5683.415527	2621.177246	36.004658
303.620087	902.257874	5572.778809	2602.007080	36.393139
303.990173	894.976257	5505.236816	2581.350830	36.578724
304.360260	899.657410	5487.181641	2585.957764	36.758392
304.730286	901.812195	5474.772949	2589.003906	36.894951
305.100281	906.493164	5451.813477	2602.155518	37.305672
305.470276	903.595398	5439.182129	2601.932617	37.444706
305.840179	902.257996	5457.758301	2610.254639	37.493061
306.210144	900.846191	5479.751465	2620.879883	37.564301
306.579987	906.641785	5514.971191	2655.356201	37.946815
306.949890	906.641846	5544.915527	2675.269531	38.131165
307.319702	919.124695	5629.471191	2714.724365	38.120327
307.689484	918.307373	5705.854980	2754.178955	38.346806
308.059265	923.582825	5815.153809	2814.512939	38.656910
308.429016	915.335266	5939.759277	2863.106689	38.766068
308.798737	906.270325	6100.921875	2896.691406	38.316742
309.168396	897.725525	6236.003906	2928.047119	38.033264
309.538055	894.902039	6307.854980	2948.926514	37.946465
309.907684	891.335449	6332.226563	2956.876953	37.963295
310.277313	894.084656	6350.207520	2955.836670	37.787857
310.646851	899.285828	6375.990723	2944.022461	37.335159
311.016388	916.747009	6373.018066	2942.090576	37.119556
311.385895	940.003723	6321.006348	2924.480713	36.879318
311.755371	935.099792	6255.025879	2908.208252	37.089016
312.124817	923.657043	6190.605469	2877.373047	37.093891
312.494232	912.288757	6134.655762	2849.583740	37.096107
312.863617	912.660339	6056.043457	2816.295898	37.011349
313.232971	918.084412	6013.765137	2822.017334	37.363663
313.602295	909.836731	5988.725098	2868.605225	38.566875
313.971619	916.226807	6035.164063	2922.772217	39.198475
314.340820	909.465332	6053.368652	2933.991455	39.357780
314.710083	917.787292	6120.761230	2925.298096	38.583908
315.079285	925.217468	6143.571777	2886.957764	37.593082
315.448486	932.424805	6164.153809	2855.379150	36.755619
315.817596	930.418640	6057.678223	2783.454346	36.140858
316.186707	919.421875	5878.831543	2725.200928	36.411171
316.555786	913.626221	5678.957031	2664.867188	36.749619
316.924866	906.270264	5527.825684	2635.220459	37.410568
317.293884	904.487000	5444.680176	2619.171143	37.766762
317.662872	910.208313	5422.463867	2633.734375	38.196556
318.031830	905.750183	5412.953125	2649.189453	38.681175
318.400757	910.059753	5470.240723	2682.328369	38.863995
318.769684	905.378662	5513.707520	2692.804688	38.786858
319.138550	902.555176	5573.075684	2687.009521	38.206757
319.507416	904.635559	5574.041504	2662.043701	37.636658
319.876190	900.920471	5539.862793	2627.790039	37.225502
320.244995	926.926453	5502.859375	2613.969727	36.867741
320.613770	923.954407	5431.603027	2585.957520	36.870735
320.982483	927.446594	5394.525879	2577.635742	36.941124
321.351166	909.316711	5323.938477	2586.700684	37.996101
