Jaz Data File
++++++++++++++++++++++++++++++++++++
Date: Fri Jun 04 13:46:22 2021
User: jaz
Dark Spectrum Present: Yes
Reference Spectrum Present: Yes
Processed Spectrum Present: Yes
Spectrometers: JAZA3586
Integration Time (usec): 386000 (JAZA3586)
Spectra Averaged: 10 (JAZA3586)
Boxcar Smoothing: 1 (JAZA3586)
Correct for Electrical Dark: No (JAZA3586)
Strobe/Lamp Enabled: Yes (JAZA3586)
Correct for Detector Non-linearity: No (JAZA3586)
Correct for Stray Light: No (JAZA3586)
Number of Pixels in Processed Spectrum: 2048
>>>>>Begin Processed Spectral Data<<<<<
W	D	R	S	P
191.335022	0.000000	0.000000	0.000000	0.000000
191.713211	286.065460	285.248138	277.892181	1000.007446
192.091385	572.502502	577.257874	567.152649	-112.501282
192.469528	854.406982	861.837219	857.676270	43.999771
192.847641	859.682556	865.923828	873.874268	227.384918
193.225739	885.911377	882.047607	891.112488	-134.612350
193.603790	921.205139	908.276550	907.682068	104.598198
193.981842	931.979004	931.904785	919.496094	16819.078125
194.359863	932.573425	939.037842	928.635315	-60.919811
194.737854	946.170898	946.913879	948.548523	320.011505
195.115829	950.108887	942.530029	952.412292	-30.392521
195.493774	946.170837	931.384583	947.879883	-11.558338
195.871704	932.499207	924.103027	931.310364	14.159330
196.249603	954.121277	933.465088	941.935608	58.992825
196.627457	952.337952	942.604309	937.031555	157.252502
197.005310	948.399902	940.300964	928.189636	249.542175
197.383133	928.486816	932.424988	921.428040	-179.239960
197.760910	946.839539	940.375305	939.112122	119.541122
198.138687	946.839600	944.536194	953.972656	-309.674347
198.516449	949.663086	944.164612	944.313293	97.295944
198.894180	927.966614	930.715820	918.827454	-332.429016
199.271866	925.291748	933.687988	906.716125	-221.237381
199.649536	922.765442	935.174011	904.487061	-147.304504
200.027191	932.870667	943.793030	910.134094	-208.165314
200.404816	924.325867	940.300842	905.230042	-119.535866
200.782410	923.880066	954.046875	920.833679	-10.098472
201.159988	922.616882	964.077820	932.053284	22.759739
201.537537	931.756165	977.377991	953.155273	46.905418
201.915070	928.561218	968.610352	949.440125	52.133228
202.292557	920.685059	963.780579	949.068665	65.862083
202.670029	919.719177	959.396729	949.068665	73.970009
203.047485	921.502441	963.483398	946.765320	60.176994
203.424911	920.016357	963.929199	941.638367	49.238464
203.802292	913.997803	969.353333	937.848877	43.087067
204.179688	909.465332	967.867249	940.746765	53.562340
204.557037	912.363098	964.597961	945.799316	64.011307
204.934357	925.737610	956.350342	942.678650	55.339851
205.311661	936.288574	955.161438	937.031555	3.936769
205.688934	933.242188	959.396729	932.647766	-2.272727
206.066177	919.570496	957.019043	919.719055	0.396703
206.443390	908.796631	960.436951	918.901672	19.568123
206.820587	908.870911	949.365906	919.867676	27.155863
207.197769	923.508545	966.678406	937.254456	31.841452
207.574921	926.332031	963.706299	944.759094	49.304146
207.952042	931.533203	973.514221	944.536194	30.973499
208.329147	931.236023	965.489563	945.056335	40.347107
208.706223	1056.881958	1091.878540	1054.429932	-7.006474
209.083267	1059.556763	1097.971313	1062.900513	8.704384
209.460297	1049.600220	1098.119995	1064.163574	30.015297
209.837280	920.759277	970.393555	948.994324	56.886185
210.214264	906.344543	961.179993	938.666199	58.942993
210.591217	898.617126	952.189392	925.811829	50.762650
210.968124	907.384827	968.387390	941.266907	55.542061
211.345016	922.245422	974.183044	950.034607	53.504921
211.721893	922.839844	977.526611	951.000549	51.494553
212.098724	917.638672	957.390625	939.557922	55.140060
212.475555	922.542664	960.214111	943.644531	56.015549
212.852356	933.390686	959.248230	949.885925	63.792755
213.229126	940.003723	970.170593	953.378113	44.334694
213.605865	923.880066	955.904480	935.099670	35.034534
213.982590	911.768738	956.053040	933.242188	48.489983
214.359283	899.805969	953.155273	921.056580	39.832966
214.735931	895.942200	960.511230	926.109192	46.720528
215.112579	900.400391	967.644287	927.743713	40.662907
215.489197	901.440613	968.610352	934.430969	49.114910
215.865799	909.168152	980.275879	932.499023	32.810600
216.242355	903.818298	971.359558	927.595215	35.203545
216.618896	918.307312	983.768066	929.750000	17.480227
216.995407	915.409424	969.873352	937.031677	39.700134
217.371902	914.889343	968.387390	932.647766	33.194527
217.748367	902.183594	955.978821	932.573425	56.491688
218.124802	902.852356	961.551514	930.938782	47.848091
218.501236	903.595398	957.539124	929.750000	48.484974
218.877609	908.499329	960.288391	931.013123	43.472103
219.253983	904.858582	960.065430	926.257751	38.761803
219.630295	903.669617	983.247864	931.979004	35.574280
220.006592	900.846191	991.644043	926.852112	28.641560
220.382889	907.533386	998.554199	928.412415	22.938742
220.759140	914.146301	988.746277	931.533203	23.306847
221.135391	910.877014	994.244690	932.276306	25.668571
221.511581	903.669739	994.913391	934.059570	33.306240
221.887772	899.508789	1005.092957	937.254578	35.749477
222.263931	911.248535	1011.780212	949.588867	38.137562
222.640060	924.994568	1017.947266	955.235840	32.534046
223.016159	926.852112	1022.999817	953.898254	28.129786
223.392212	914.220703	1022.033875	949.885986	33.080635
223.768265	899.434387	1027.532349	944.907654	35.498821
224.144302	892.672913	1027.532349	940.152344	35.206608
224.520294	893.787415	1023.668640	933.390808	30.492008
224.896286	909.242432	1033.179321	940.672424	25.359674
225.272217	919.124695	1041.947144	960.882751	33.998718
225.648148	927.595215	1066.392578	966.306824	27.890738
226.024048	909.019470	1065.798218	959.693909	32.322262
226.399902	903.743958	1077.612305	942.232727	22.136732
226.775772	894.307556	1072.708374	941.043945	26.197407
227.151581	910.431152	1098.194214	952.560852	22.437693
227.527374	903.669617	1127.469360	966.158264	27.921680
227.903137	910.579773	1175.394897	977.972412	25.448938
228.278870	908.127869	1238.329224	987.260254	23.964888
228.654572	914.369324	1308.396729	993.427307	20.064083
229.030273	909.688171	1396.891235	996.325195	17.782528
229.405930	901.589172	1473.497192	997.588318	16.785767
229.781555	906.121765	1537.992065	1007.544922	16.051262
230.157181	908.276550	1551.960938	1007.693542	15.444990
230.532761	904.338379	1529.001343	1002.789551	15.760687
230.908325	895.570618	1470.748047	980.647278	14.791377
231.283859	892.598572	1427.578125	976.412048	15.666669
231.659332	899.434387	1381.139038	978.789734	16.473860
232.034821	902.778015	1356.321899	988.300537	18.856504
232.410263	903.298157	1334.996948	990.158020	20.120480
232.785690	899.508728	1312.037476	989.266418	21.757923
233.161087	903.075195	1299.851685	985.551270	20.786533
233.536469	904.264099	1280.235840	987.706055	22.193678
233.911804	907.161865	1289.449463	981.315979	19.397469
234.287140	909.688171	1298.291382	983.768066	19.063120
234.662430	912.363098	1324.446045	981.316101	16.732798
235.037704	912.734619	1341.981445	990.901062	18.210138
235.412933	901.514954	1348.000000	990.232361	19.870186
235.788162	893.044434	1346.365356	990.380920	21.471872
236.163345	900.549011	1348.371460	991.644043	20.341774
236.538513	908.053650	1364.792358	1001.451965	20.448959
236.913635	908.722351	1371.108032	1004.869934	20.793806
237.288742	901.217773	1377.423828	1008.585144	22.546410
237.663834	898.171326	1372.668457	1009.105286	23.379269
238.038879	899.880188	1375.937866	1012.820374	23.724054
238.413910	898.394226	1389.683716	1010.591309	22.837265
238.788910	899.285828	1402.538208	1016.164063	23.224577
239.163879	903.595398	1417.770142	1026.343384	23.872814
239.538834	908.573669	1425.051880	1039.272095	25.305700
239.913757	914.294983	1469.336304	1047.965576	24.082998
240.288651	916.375488	1509.756836	1057.327759	23.754078
240.663528	908.127869	1562.214478	1069.513428	24.673424
241.038361	897.725403	1609.619751	1086.677246	26.542118
241.413177	897.948425	1708.219604	1110.379761	26.217314
241.787979	899.508789	1819.970825	1128.286743	24.854687
242.162735	903.818359	1958.619629	1144.336304	22.802204
242.537476	896.833801	2076.760986	1162.020264	22.474815
242.912170	919.050293	2205.007568	1190.775513	21.130190
243.286865	924.920227	2262.815186	1200.286133	20.582026
243.661514	924.697327	2259.768799	1188.397705	19.751780
244.036148	912.883118	2186.951904	1167.072876	19.951023
244.410751	914.740784	2082.259521	1153.401123	20.441669
244.785339	916.747009	1999.040405	1147.234009	21.296165
245.159882	913.626221	1949.777710	1157.190552	23.506634
245.534378	916.003906	1986.854858	1178.664063	24.528172
245.908890	913.477600	2072.005859	1211.877441	25.756802
246.283356	907.236145	2235.694580	1251.109253	25.885122
246.657791	888.214661	2451.172607	1299.628784	26.322788
247.032196	896.833801	2719.405029	1356.544800	25.223211
247.406586	900.994690	2953.755859	1381.287598	23.397408
247.780960	911.694336	3110.163086	1390.055298	21.758825
248.155289	900.325989	3134.237305	1374.674805	21.234003
248.529602	897.725403	3042.547852	1344.730591	20.841127
248.903870	901.143372	2861.620850	1305.127319	20.606405
249.278122	904.784180	2650.155273	1260.322754	20.370371
249.652344	897.725525	2462.020752	1227.703857	21.094378
250.026550	896.908203	2311.557861	1210.391357	22.159773
250.400711	916.226868	2211.323242	1213.437866	22.948948
250.774857	924.103027	2137.243408	1219.084717	24.315544
251.148987	927.298035	2105.442139	1214.552246	24.381926
251.523071	907.904968	2105.293701	1213.289185	25.504185
251.897125	926.629211	2160.351807	1241.152710	25.493858
252.271164	916.003906	2223.211914	1258.836670	26.226336
252.645187	912.808899	2283.694092	1261.288574	25.420048
253.019165	892.524231	2297.291748	1234.316772	24.330896
253.393112	920.610657	2290.455566	1234.465332	22.911694
253.767044	925.663269	2211.546143	1217.524292	22.697327
254.140930	928.858337	2130.110352	1218.416016	24.104658
254.514801	910.356934	2040.947266	1206.750488	26.215822
254.888657	911.099915	1997.777344	1202.218140	26.789753
255.262466	914.815125	1962.334961	1199.468872	27.174068
255.636276	923.285645	1973.926147	1216.261353	27.885439
256.010010	924.845947	1996.365601	1247.394165	30.101942
256.383759	921.948181	2038.272339	1261.140259	30.384727
256.757446	910.059753	2080.996338	1266.935791	30.477829
257.131134	906.493225	2157.973877	1283.951050	30.160898
257.504791	902.629456	2259.025391	1322.959961	30.988775
257.878418	903.521057	2365.352783	1361.077271	31.300196
258.252014	911.471436	2515.964600	1419.404785	31.656935
258.625580	915.558105	2692.581787	1483.899536	31.982773
258.999115	906.195984	2939.787109	1561.323120	32.215282
259.372650	900.103210	3214.038330	1629.607422	31.526564
259.746124	892.004150	3535.992188	1687.414673	30.083742
260.119598	899.211426	3831.642578	1744.182129	28.814682
260.493042	898.096924	4030.105225	1759.339844	27.498104
260.866425	903.669617	4079.516602	1750.200684	26.655285
261.239838	902.926575	3933.289063	1685.557251	25.826305
261.613159	903.669678	3662.158203	1614.375366	25.764315
261.986511	904.264160	3344.142578	1544.828003	26.253925
262.359802	912.734619	3084.677490	1503.664185	27.207418
262.733063	908.425049	2920.096924	1477.509644	28.289137
263.106293	913.626221	2820.679688	1464.729492	28.898155
263.479523	911.174255	2762.203857	1467.181641	30.037737
263.852692	923.508545	2723.714600	1478.549805	30.832096
264.225861	917.712952	2684.185791	1467.998901	31.151678
264.598969	921.205139	2666.427490	1459.231079	30.828503
264.972076	919.198975	2672.297607	1455.293091	30.579803
265.345154	926.777832	2719.108154	1483.453735	31.058779
265.718201	915.112305	2767.107422	1511.763062	32.216648
266.091217	927.075012	2861.174561	1558.871094	32.666161
266.464203	927.223633	2945.731201	1605.310181	33.593460
266.837158	928.858215	3059.340088	1632.059204	33.006664
267.210114	906.716125	3136.391846	1640.232544	32.897896
267.583038	899.583069	3201.406982	1637.334839	32.050747
267.955902	908.350769	3235.289063	1643.204712	31.580294
268.328766	910.356934	3226.372803	1642.981812	31.632982
268.701569	906.790344	3227.635986	1643.427612	31.740036
269.074371	891.855652	3230.310791	1647.959961	32.333496
269.447144	898.171326	3265.084229	1665.049683	32.399940
269.819885	903.223877	3318.359375	1702.275391	33.085163
270.192596	916.003906	3419.634033	1769.667847	34.097046
270.565277	926.109070	3577.081299	1858.608032	35.175735
270.937927	917.787170	3756.819580	1928.750000	35.609413
271.310577	914.146301	3973.041016	1979.424438	34.825588
271.683136	899.657410	4175.367188	2011.448853	33.940475
272.055725	901.440674	4344.777344	2024.823608	32.624836
272.428284	899.211609	4382.151855	2014.198242	32.012798
272.800812	897.874023	4332.071777	1982.916870	31.595236
273.173279	907.087585	4185.843750	1950.595093	31.826324
273.545776	906.493164	4063.467529	1927.264038	32.333836
273.918152	916.152527	3939.678955	1911.734497	32.927841
274.290558	911.620117	3880.682861	1904.601563	33.444271
274.662964	917.861511	3820.794678	1892.936157	33.589291
275.035278	904.264099	3775.395752	1889.815430	34.326233
275.407593	909.391052	3769.525391	1912.403442	35.068718
275.779907	911.843018	3831.568359	1946.062500	35.421806
276.152161	917.341370	3925.932861	1971.176880	35.027534
276.524384	915.632385	4015.319092	1981.876587	34.398449
276.896606	914.889404	4067.628174	1996.736938	34.314533
277.268799	916.672668	4114.661621	2006.767944	34.086895
277.640930	909.465271	4123.949219	2015.981445	34.422825
278.013031	907.533447	4136.432617	2011.820435	34.200108
278.385162	907.310547	4116.073730	2009.963013	34.363785
278.757233	907.904968	4103.516602	2012.117798	34.554039
279.129272	901.737793	4085.535156	2027.275391	35.352047
279.501282	893.416016	4097.200684	2059.225830	36.388519
279.873230	895.199219	4162.141113	2108.860107	37.149754
280.245178	897.948425	4276.790039	2154.927490	37.201477
280.617126	901.589172	4452.070313	2225.515137	37.288635
280.988983	896.388000	4626.607422	2286.443359	37.264709
281.360870	908.647949	4806.791504	2376.275146	37.649387
281.732697	906.567444	4952.499512	2412.311768	37.216255
282.104492	914.889465	5077.179199	2433.636963	36.488274
282.476288	904.487122	5152.967773	2419.816650	35.667568
282.848053	912.363098	5184.026855	2408.745361	35.030434
283.219757	905.898743	5212.261230	2399.829102	34.691238
283.591461	912.288757	5168.868652	2388.015381	34.669300
283.963135	910.951355	5133.129395	2403.247070	35.344212
284.334747	920.239258	5094.343262	2436.980469	36.336929
284.706360	913.849121	5159.729492	2494.193604	37.220654
285.077942	921.799561	5298.007324	2558.465576	37.399181
285.449524	926.406311	5453.820313	2600.297852	36.972355
285.821014	924.846008	5558.214844	2613.077881	36.436382
286.192535	913.180420	5681.260254	2633.957275	36.089512
286.563995	900.325989	5760.169922	2641.461914	35.826996
286.935425	893.936035	5813.890625	2631.208008	35.310730
287.306824	898.171326	5744.343750	2571.914551	34.537426
287.678223	898.691406	5625.458984	2520.496826	34.311089
288.049561	913.106140	5498.550293	2496.719971	34.535667
288.420898	906.716125	5361.535645	2494.490967	35.641735
288.792145	913.106140	5330.551758	2519.159668	36.357059
289.163452	907.533447	5360.940918	2561.735107	37.144630
289.534668	914.666504	5490.302246	2625.486572	37.389778
289.905914	908.499329	5628.951172	2677.349854	37.472061
290.277039	915.186584	5819.240234	2749.572266	37.405499
290.648193	923.434265	6011.089844	2794.822510	36.782917
291.019318	919.198914	6128.860840	2800.469482	36.111179
291.390381	909.911133	6132.649902	2752.469971	35.279552
291.761475	900.177490	6028.031250	2694.439697	34.990513
292.132507	903.075195	5926.533203	2669.399414	35.161522
292.503510	901.217712	5821.395020	2653.126953	35.606628
292.874481	930.492981	5818.274902	2702.538574	36.254601
293.245422	937.551758	5825.036621	2732.854248	36.732647
293.616364	944.833313	5943.846191	2821.497314	37.540695
293.987213	922.245300	6109.838379	2880.865234	37.755848
294.358093	922.393982	6327.248535	2968.764893	37.861721
294.728943	906.864746	6551.939453	3019.737061	37.428596
295.099731	897.799805	6726.550781	3077.692627	37.398972
295.470490	896.908203	6901.607910	3132.973877	37.238594
295.841248	914.963684	7013.359375	3193.531006	37.363392
296.211975	909.688171	7130.980957	3247.772217	37.581963
296.582642	902.852356	7278.992188	3312.192383	37.786816
296.953308	896.685242	7435.175781	3346.148682	37.462215
297.323883	903.149597	7541.280762	3345.331299	36.790199
297.694519	910.579895	7536.673340	3289.975830	35.909485
298.065063	921.576660	7448.327637	3211.586670	35.086525
298.435608	922.468323	7245.555176	3119.970947	34.753635
298.806122	921.353821	6955.626465	3004.653564	34.524456
299.176575	913.700623	6618.812500	2910.437500	34.999084
299.547028	918.158691	6387.433594	2835.020264	35.047817
299.917450	912.883240	6240.314453	2814.289795	35.690868
300.287872	902.629456	6169.206543	2809.163086	36.200623
300.658234	894.158936	6097.058594	2806.562500	36.756496
301.028564	902.109375	6028.848145	2806.636719	37.148907
301.398865	910.431335	5983.671875	2780.927979	36.869858
301.769135	913.997864	5929.134277	2757.299805	36.754776
302.139374	909.539551	5905.580078	2730.253418	36.443138
302.509583	899.731628	5867.686035	2717.399170	36.587845
302.879791	899.657410	5801.259277	2686.860596	36.461613
303.249939	898.319885	5683.415527	2640.570068	36.409935
303.620087	902.257874	5572.778809	2603.864502	36.432911
303.990173	894.976257	5505.236816	2597.028809	36.918789
304.360260	899.657410	5487.181641	2606.688232	37.210281
304.730286	901.812195	5474.772949	2617.536377	37.518890
305.100281	906.493164	5451.813477	2611.220459	37.505108
305.470276	903.595398	5439.182129	2610.626221	37.636379
305.840179	902.257996	5457.758301	2610.403076	37.496319
306.210144	900.846191	5479.751465	2624.743408	37.648678
306.579987	906.641785	5514.971191	2652.904541	37.893616
306.949890	906.641846	5544.915527	2674.303711	38.110340
307.319702	919.124695	5629.471191	2726.909912	38.379025
307.689484	918.307373	5705.854980	2771.417236	38.706867
308.059265	923.582825	5815.153809	2833.534424	39.045773
308.429016	915.335266	5939.759277	2867.267578	38.848881
308.798737	906.270325	6100.921875	2918.016357	38.727261
309.168396	897.725525	6236.003906	2943.725342	38.326958
309.538055	894.902039	6307.854980	2964.158447	38.227863
309.907684	891.335449	6332.226563	2956.208252	37.951004
310.277313	894.084656	6350.207520	2969.731201	38.042515
310.646851	899.285828	6375.990723	2960.294678	37.632275
311.016388	916.747009	6373.018066	2951.378174	37.289772
311.385895	940.003723	6321.006348	2928.047119	36.945595
311.755371	935.099792	6255.025879	2899.292236	36.921421
312.124817	923.657043	6190.605469	2864.518311	36.849827
312.494232	912.288757	6134.655762	2821.422852	36.556870
312.863617	912.660339	6056.043457	2806.859375	36.827877
313.232971	918.084412	6013.765137	2816.816406	37.261597
313.602295	909.836731	5988.725098	2846.611572	38.133835
313.971619	916.226807	6035.164063	2890.375977	38.565605
314.340820	909.465332	6053.368652	2912.072266	38.931660
314.710083	917.787292	6120.761230	2934.957764	38.769566
315.079285	925.217468	6143.571777	2904.939209	37.937660
315.448486	932.424805	6164.153809	2870.091064	37.036823
315.817596	930.418640	6057.678223	2788.432373	36.237946
316.186707	919.421875	5878.831543	2728.916016	36.486080
316.555786	913.626221	5678.957031	2669.250977	36.841610
316.924866	906.270264	5527.825684	2642.279053	37.563301
317.293884	904.487000	5444.680176	2626.898193	37.936954
317.662872	910.208313	5422.463867	2627.864258	38.066463
318.031830	905.750183	5412.953125	2644.656494	38.580605
318.400757	910.059753	5470.240723	2666.799072	38.523453
318.769684	905.378662	5513.707520	2686.415039	38.648201
319.138550	902.555176	5573.075684	2688.272461	38.233795
319.507416	904.635559	5574.041504	2675.120850	37.916718
319.876190	900.920471	5539.862793	2650.006592	37.704418
320.244995	926.926453	5502.859375	2633.511230	37.294792
320.613770	923.954407	5431.603027	2600.223633	37.187222
320.982483	927.446594	5394.525879	2594.205078	37.312046
321.351166	909.316711	5323.938477	2591.530273	38.105499
