Jaz Data File
++++++++++++++++++++++++++++++++++++
Date: Fri Jun 04 12:59:15 2021
User: jaz
Dark Spectrum Present: Yes
Reference Spectrum Present: Yes
Processed Spectrum Present: Yes
Spectrometers: JAZA3586
Integration Time (usec): 40000 (JAZA3586)
Spectra Averaged: 10 (JAZA3586)
Boxcar Smoothing: 1 (JAZA3586)
Correct for Electrical Dark: No (JAZA3586)
Strobe/Lamp Enabled: Yes (JAZA3586)
Correct for Detector Non-linearity: No (JAZA3586)
Correct for Stray Light: No (JAZA3586)
Number of Pixels in Processed Spectrum: 2048
>>>>>Begin Processed Spectral Data<<<<<
W	D	R	S	P
191.335022	0.000000	0.000000	0.000000	0.000000
191.713211	407.921967	415.277924	401.977783	-80.807747
192.091385	817.701477	830.407227	813.837708	-30.409615
192.469528	1229.635742	1241.598511	1225.251831	-36.646294
192.847641	1240.409668	1240.558228	1234.985474	-3651.191406
193.225739	1250.886353	1250.811890	1235.951416	20056.884766
193.603790	1263.666382	1262.774780	1244.124756	2191.744141
193.981842	1266.489868	1265.301147	1255.864624	893.838562
194.359863	1266.712769	1263.963623	1267.084351	-13.516273
194.737854	1268.793091	1260.842896	1264.112183	58.877903
195.115829	1266.415527	1272.508423	1265.003784	-23.170317
195.493774	1274.143066	1280.310181	1263.592041	-171.085297
195.871704	1276.074829	1281.796143	1263.369141	-222.076431
196.249603	1279.567139	1277.560913	1265.003784	725.908142
196.627457	1275.183228	1269.461914	1259.431030	275.324829
197.005310	1269.684937	1271.988281	1267.455688	-96.783081
197.383133	1279.270020	1271.393921	1258.687988	261.322662
197.760910	1276.892212	1271.839722	1261.140015	311.770966
198.138687	1277.040894	1268.570313	1255.790283	250.875473
198.516449	1272.434082	1266.712769	1257.350586	263.636932
198.894180	1270.353516	1263.740723	1255.567261	223.600754
199.271866	1270.056274	1268.941895	1258.019409	1080.140259
199.649536	1260.025513	1264.037964	1265.746826	142.588989
200.027191	1261.585815	1260.694336	1264.112183	-283.390381
200.404816	1258.613770	1258.242310	1257.870850	200.000000
200.782410	1263.963501	1281.350342	1257.127808	-39.315327
201.159988	1261.140015	1299.480103	1265.969849	12.597347
201.537537	1257.647949	1309.511108	1270.725220	25.214952
201.915070	1256.756226	1310.625732	1271.542480	27.448284
202.292557	1259.802612	1308.768188	1269.164795	19.119926
202.670029	1265.301147	1311.517334	1269.462036	9.003098
203.047485	1256.533325	1309.585449	1263.443481	13.025221
203.424911	1254.081177	1310.254272	1261.585938	13.360063
203.802292	1250.663452	1301.263550	1259.802612	18.061546
204.179688	1256.236206	1294.130493	1256.013062	-0.588861
204.557037	1249.400269	1291.604248	1253.264038	9.154988
204.934357	1253.189575	1290.489624	1258.539551	14.343080
205.311661	1253.932617	1288.111938	1262.180298	24.130615
205.688934	1258.762329	1280.384521	1267.232910	39.175404
206.066177	1257.424927	1284.322510	1258.019287	2.209717
206.443390	1257.573608	1282.390625	1258.242188	2.694035
206.820587	1256.682007	1289.598022	1258.093628	4.288554
207.197769	1252.000977	1294.353394	1260.471313	19.999655
207.574921	1245.610840	1299.182983	1258.762573	24.549574
207.952042	1242.490112	1302.080933	1267.530151	42.019958
208.329147	1247.394165	1294.204712	1270.873779	50.158813
208.706223	1258.093628	1299.554565	1269.907837	28.494795
209.083267	1270.130737	1292.867310	1262.923462	-31.699041
209.460297	1260.397095	1292.198608	1271.393921	34.579567
209.837280	1258.019409	1284.471069	1267.975952	37.640522
210.214264	1249.697388	1289.152222	1259.431152	24.670652
210.591217	1249.920288	1295.022095	1249.623169	-0.658774
210.968124	1248.434204	1305.647339	1257.276367	15.454779
211.345016	1252.446655	1300.371948	1264.112183	24.341066
211.721893	1252.595215	1300.520508	1266.118286	28.216982
212.098724	1252.743896	1292.718750	1266.192749	33.643280
212.475555	1242.118530	1301.412109	1268.273071	44.110241
212.852356	1247.765625	1303.492554	1264.335083	29.733305
213.229126	1236.322876	1301.486450	1259.505493	35.576038
213.605865	1246.502441	1302.303833	1251.555054	9.054635
213.982590	1252.520874	1306.464722	1252.520996	0.000226
214.359283	1255.938843	1305.424561	1250.217651	-11.561298
214.735931	1249.771606	1290.786987	1251.183472	3.442282
215.112579	1244.942017	1284.099731	1248.657227	9.487811
215.489197	1248.062744	1286.031494	1246.502563	-4.109118
215.865799	1251.183472	1297.176880	1252.744019	3.392979
216.242355	1248.137085	1302.972534	1251.926392	6.910323
216.618896	1245.982300	1295.765259	1259.431030	27.014727
216.995407	1246.205200	1295.244995	1243.233154	-6.060478
217.371902	1242.638794	1288.632080	1250.663452	17.447456
217.748367	1238.106323	1294.056152	1251.109253	23.240339
218.124802	1239.220947	1290.563965	1263.294922	46.888508
218.501236	1246.131104	1295.467896	1263.294922	34.789085
218.877609	1253.486938	1299.108765	1261.363037	17.263884
219.253983	1254.378540	1301.709351	1261.362915	14.756508
219.630295	1252.372437	1299.851807	1262.031738	20.344208
220.006592	1252.818237	1304.755737	1265.226685	23.891113
220.382889	1256.161743	1310.179810	1263.666382	13.892831
220.759140	1256.756226	1311.220093	1260.619995	7.094189
221.135391	1258.762451	1308.693848	1252.446655	-12.648947
221.511581	1253.189819	1303.566895	1255.493042	4.571966
221.887772	1254.824341	1303.046875	1259.059570	8.782677
222.263931	1253.784180	1300.371948	1268.644653	31.897800
222.640060	1253.635620	1299.405884	1267.827271	31.006268
223.016159	1249.028809	1303.566895	1257.796387	16.076065
223.392212	1246.725464	1306.910522	1253.041016	10.493554
223.768265	1246.428223	1310.105469	1254.824341	13.185430
224.144302	1249.994751	1310.997192	1267.307251	28.380013
224.520294	1252.966797	1309.511230	1271.914063	33.508633
224.896286	1248.805786	1310.254272	1269.833496	34.220062
225.272217	1244.570557	1309.362671	1270.427856	39.908096
225.648148	1241.524170	1309.065308	1270.427856	42.794197
226.024048	1250.886353	1311.442993	1272.731201	36.073414
226.399902	1249.771729	1312.334595	1270.576538	33.254246
226.775772	1256.235962	1313.226318	1271.468140	26.727640
227.151581	1250.217651	1318.278931	1274.886108	36.244480
227.527374	1255.641602	1325.783569	1273.177124	25.000044
227.903137	1250.068970	1337.151733	1281.796265	36.433495
228.278870	1249.177368	1352.903931	1281.499023	31.160442
228.654572	1245.759399	1358.551025	1289.152222	38.471668
229.030273	1244.719116	1369.101929	1288.632202	35.304787
229.405930	1249.103149	1366.427124	1292.049927	36.605286
229.781555	1247.691284	1378.389648	1289.598022	32.063705
230.157181	1248.954468	1373.931641	1288.557739	31.688404
230.532761	1240.409668	1384.110962	1284.173950	30.455036
230.908325	1240.706787	1374.005859	1284.396851	32.775970
231.283859	1236.025635	1372.594238	1281.870605	33.569187
231.659332	1241.524048	1359.888306	1291.232788	41.996410
232.034821	1235.357056	1361.151489	1289.598022	43.118732
232.410263	1244.347656	1361.002930	1287.666138	37.133755
232.785690	1238.552124	1359.219727	1280.681641	34.913692
233.161087	1252.892456	1349.783203	1281.573364	29.601288
233.536469	1249.177368	1349.931763	1282.019165	32.595894
233.911804	1256.682007	1358.105103	1286.402954	29.303925
234.287140	1251.777954	1365.683960	1289.820923	33.398563
234.662430	1257.127686	1361.745972	1291.455566	32.812504
235.037704	1257.945068	1358.996826	1291.381348	33.088272
235.412933	1259.579712	1366.278320	1297.102539	35.167118
235.788162	1251.629272	1374.674683	1303.492554	42.149708
236.163345	1249.994751	1383.813843	1307.950806	43.309258
236.538513	1249.474609	1390.055298	1303.864258	38.689274
236.913635	1246.948364	1401.795044	1305.870239	38.051754
237.288742	1249.326050	1407.070679	1306.910645	36.504948
237.663834	1248.062744	1404.767212	1308.025146	38.264641
238.038879	1249.548828	1403.652710	1314.043579	41.851479
238.413910	1245.833862	1392.878784	1313.895020	46.285961
238.788910	1245.685059	1403.058228	1316.495605	44.995312
239.163879	1249.325806	1415.764038	1311.963135	37.633980
239.538834	1253.709839	1428.841309	1318.724731	37.123478
239.913757	1254.527222	1427.132324	1311.591675	33.060699
240.288651	1253.561157	1432.036255	1318.427490	36.344753
240.663528	1244.644897	1450.314819	1321.176636	37.210953
241.038361	1239.517944	1472.754272	1344.284790	44.918751
241.413177	1236.100098	1501.435059	1364.866577	48.529781
241.787979	1243.827515	1533.088257	1388.866577	50.141289
242.162735	1244.273315	1565.409668	1417.547241	53.956497
242.537476	1243.456055	1579.824585	1426.909546	54.539433
242.912170	1234.762695	1591.267090	1430.253052	54.835327
243.286865	1241.301270	1593.347656	1430.104492	53.630211
243.661514	1245.982422	1592.901855	1420.222168	50.224846
244.036148	1252.223755	1575.589233	1413.832031	49.976971
244.410751	1246.576782	1571.354004	1397.857056	46.579704
244.785339	1249.846069	1566.821411	1404.321289	48.734142
245.159882	1249.623169	1585.768555	1417.473022	49.933708
245.534378	1254.081299	1606.870605	1439.392212	52.527363
245.908890	1249.325928	1652.269653	1462.203125	52.830502
246.283356	1249.400269	1709.408569	1492.518921	52.850925
246.657791	1248.359985	1772.119751	1535.317017	54.787910
247.032196	1245.536499	1829.481567	1585.397095	58.200783
247.406586	1243.827515	1867.375977	1619.799316	60.295521
247.780960	1244.719116	1871.759888	1618.164673	59.556824
248.155289	1251.480835	1851.326538	1603.973022	58.763809
248.529602	1254.750000	1812.986328	1570.908203	56.635189
248.903870	1252.892456	1771.896851	1540.890015	55.490391
249.278122	1250.366211	1724.343262	1511.614624	55.118366
249.652344	1251.629272	1691.724243	1503.738403	57.285164
250.026550	1249.251587	1673.817383	1499.800415	59.012955
250.400711	1248.062744	1669.284790	1495.268066	58.687649
250.774857	1241.598511	1672.405640	1493.038940	58.364964
251.148987	1245.908081	1677.086548	1507.750854	60.727238
251.523071	1241.895630	1687.488892	1506.264771	59.329700
251.897125	1244.867798	1702.869751	1515.552612	59.101234
252.271164	1240.186768	1718.770508	1524.840454	59.478344
252.645187	1244.793457	1727.166870	1537.694824	60.720879
253.019165	1243.678955	1708.665405	1534.054077	62.448082
253.393112	1244.347656	1695.365234	1517.781738	60.626038
253.767044	1248.434204	1678.275513	1505.224609	59.740746
254.140930	1252.818237	1667.427368	1486.277344	56.308239
254.514801	1253.115479	1653.458374	1480.853149	56.885654
254.888657	1255.493164	1650.932129	1486.945923	58.530590
255.262466	1255.715942	1653.607056	1501.583618	61.792702
255.636276	1252.892456	1667.353149	1526.177856	65.937592
256.010010	1247.988403	1685.557251	1530.190308	64.493141
256.383759	1240.632446	1720.108032	1537.843384	61.986668
256.757446	1238.700684	1753.098511	1539.255249	58.428429
257.131134	1228.967041	1788.317871	1566.895874	60.414471
257.504791	1234.465454	1828.812866	1606.202026	62.545334
257.878418	1241.672729	1878.001343	1653.681274	64.747765
258.252014	1254.675659	1953.344238	1703.315796	64.213585
258.625580	1253.189697	2043.473267	1765.284058	64.798813
258.999115	1249.697388	2163.992432	1834.608398	63.973988
259.372650	1238.552002	2270.839844	1920.651001	66.076431
259.746124	1231.790405	2368.696533	1996.142578	67.230896
260.119598	1231.939087	2427.321289	2051.646729	68.572853
260.493042	1237.883301	2439.506836	2062.569092	68.630959
260.866425	1246.353882	2404.733154	2031.510742	67.780640
261.239838	1239.963867	2331.099365	1970.656860	66.966293
261.613159	1242.564331	2239.484131	1908.391113	66.788399
261.986511	1241.226929	2148.314453	1858.979858	68.102905
262.359802	1246.130981	2086.494629	1817.518921	67.992935
262.733063	1237.957642	2070.148193	1797.308594	67.214287
263.106293	1240.632446	2052.389893	1775.909302	65.940491
263.479523	1245.759399	2038.495117	1777.320923	67.054062
263.852692	1251.257813	2026.012329	1769.296387	66.864868
264.225861	1241.598389	2015.312866	1770.708130	68.385658
264.598969	1240.632446	2015.981445	1771.228394	68.433174
264.972076	1244.421875	2014.792480	1777.989868	69.261208
265.345154	1249.400269	2064.723877	1806.373535	68.313156
265.718201	1248.582886	2105.887939	1832.230835	68.079376
266.091217	1239.666504	2163.100830	1867.673218	68.007729
266.464203	1243.604614	2199.434814	1894.570801	68.104797
266.837158	1248.434326	2249.663330	1925.109253	67.584435
267.210114	1256.681885	2285.105957	1949.703491	67.386757
267.583038	1259.133911	2308.288086	1967.758911	67.542503
267.955902	1256.161743	2324.560547	1980.018921	67.751587
268.328766	1249.400269	2323.817627	1996.959839	69.578133
268.701569	1238.106323	2334.517090	2008.922485	70.303596
269.074371	1240.484009	2333.848389	2011.374634	70.506287
269.447144	1240.632446	2361.563232	2020.736938	69.594353
269.819885	1245.610840	2416.101563	2061.157471	69.675613
270.192596	1241.524048	2509.425781	2147.274170	71.436935
270.565277	1247.022583	2630.985107	2237.552246	71.571999
270.937927	1246.651001	2745.559814	2318.319336	71.496567
271.310577	1245.685059	2832.197021	2363.124023	70.433693
271.683136	1244.421875	2878.858643	2398.789063	70.627831
272.055725	1253.264038	2895.205811	2408.077148	70.332161
272.428284	1265.746948	2876.630127	2404.138916	70.668808
272.800812	1268.644653	2843.936768	2381.253662	70.628746
273.173279	1258.911011	2770.079834	2334.368408	71.167259
273.545776	1248.137207	2743.702393	2307.396729	70.826706
273.918152	1252.669556	2710.786133	2282.356689	70.617615
274.290558	1254.229980	2709.597412	2285.031494	70.827576
274.662964	1258.242188	2685.151611	2283.471191	71.849617
275.035278	1246.205200	2689.386719	2294.096680	72.609818
275.407593	1242.192871	2720.148193	2307.768311	72.097946
275.779907	1235.431274	2764.507080	2351.904053	73.016182
276.152161	1244.199097	2822.611572	2381.848389	72.075539
276.524384	1249.103149	2866.524658	2429.698975	72.992462
276.896606	1252.818237	2894.462646	2442.404785	72.463104
277.268799	1247.394043	2886.883545	2455.184814	73.668709
277.640930	1245.759399	2888.666748	2451.841064	73.411423
278.013031	1242.713013	2881.608154	2450.801025	73.713562
278.385162	1246.130859	2899.886719	2450.800781	72.844482
278.757233	1250.737671	2904.865234	2452.658447	72.661919
279.129272	1255.493042	2946.028564	2480.447754	72.459564
279.501282	1254.675659	2975.452393	2505.710693	72.701767
279.873230	1253.264038	3051.241455	2559.431396	72.646484
280.245178	1255.121582	3138.398438	2608.025391	71.837753
280.617126	1255.121582	3236.254883	2692.136230	72.534981
280.988983	1256.681885	3320.365479	2773.869141	73.518402
281.360870	1253.264038	3407.002686	2853.595947	74.304832
281.732697	1246.948242	3485.020508	2914.301514	74.499527
282.104492	1246.874023	3536.438232	2933.100342	73.648354
282.476288	1244.496216	3547.360596	2947.143311	73.936058
282.848053	1248.880127	3540.153076	2936.517578	73.655014
283.219757	1241.821289	3532.277100	2942.536377	74.252258
283.591461	1241.672729	3511.546631	2926.487061	74.225014
283.963135	1245.908081	3533.317383	2945.434326	74.299179
284.334747	1251.926636	3581.985596	2984.294678	74.348671
284.706360	1258.911011	3668.325439	3053.693359	74.490395
285.077942	1259.728394	3752.881836	3130.150391	75.022339
285.449524	1264.112183	3818.714111	3184.986084	75.192688
285.821014	1260.471313	3849.252686	3193.159424	74.656296
286.192535	1259.059692	3879.270752	3210.471924	74.475388
286.563995	1251.852173	3870.874756	3208.242920	74.699272
286.935425	1252.595337	3855.048096	3214.855713	75.400429
287.306824	1248.434204	3779.184814	3167.079346	75.813286
287.678223	1245.090698	3732.968750	3120.937256	75.399460
288.049561	1242.415771	3696.337891	3080.219482	74.892502
288.420898	1243.753296	3694.182861	3061.792236	74.192657
288.792145	1243.827515	3720.857422	3094.411133	74.709785
289.163452	1245.685059	3790.181885	3163.215576	75.359909
289.534668	1240.186646	3913.301514	3261.963867	75.633759
289.905914	1242.713013	4016.136475	3349.418213	75.960457
290.277039	1240.261108	4124.023926	3422.829346	75.684746
290.648193	1252.446655	4150.104492	3464.438721	76.337250
291.019318	1253.858398	4165.781738	3474.172607	76.249062
291.390381	1252.595215	4100.841797	3429.590820	76.432838
291.761475	1243.010132	4044.445313	3376.092529	76.142494
292.132507	1241.821411	3996.594482	3334.780273	75.975731
292.503510	1242.415771	3986.935547	3335.523438	76.264984
292.874481	1245.313599	4028.098877	3372.897461	76.455200
293.245422	1242.713013	4106.116699	3444.376953	76.889748
293.616364	1240.409546	4238.301270	3549.663818	77.029282
293.987213	1241.821411	4366.770996	3644.919922	76.900391
294.358093	1250.440552	4465.221680	3708.746094	76.468834
294.728943	1253.932739	4551.709961	3783.865967	76.716309
295.099731	1253.041138	4634.780762	3853.933350	76.909882
295.470490	1252.297974	4746.234375	3939.678711	76.915558
295.841248	1250.960571	4840.228027	4015.690186	77.027679
296.211975	1250.737671	4932.363281	4096.828613	77.305275
296.582642	1245.536499	5032.077637	4175.664063	77.382690
296.953308	1253.561157	5075.767578	4207.763184	77.290489
297.323883	1257.870728	5091.668457	4196.840332	76.659485
297.694519	1262.031738	4994.331543	4141.931152	77.161522
298.065063	1255.418823	4903.905762	4067.702393	77.080826
298.435608	1246.279663	4776.030273	3952.607422	76.671928
298.806122	1237.437500	4613.901855	3825.550049	76.651558
299.176575	1233.870972	4445.457520	3697.155029	76.699921
299.547028	1241.598511	4328.430176	3631.471436	77.421555
299.917450	1246.502319	4293.211426	3594.691406	77.072968
300.287872	1257.499146	4292.245605	3598.257813	77.131935
300.658234	1252.818115	4278.127441	3594.096924	77.389732
301.028564	1247.616943	4257.396973	3594.839844	77.986526
301.398865	1236.545898	4225.373047	3568.090820	78.008690
301.769135	1245.685059	4183.020508	3534.877686	77.934326
302.139374	1261.362915	4145.645996	3491.039063	77.304344
302.509583	1261.140015	4107.305664	3461.169189	77.298012
302.879791	1255.121582	4070.080078	3439.472656	77.597984
303.249939	1249.846069	4026.093018	3414.656006	77.976128
303.620087	1252.446655	3988.198486	3385.380127	77.965164
303.990173	1247.319702	3977.127197	3377.801514	78.045128
304.360260	1247.988525	3975.269531	3371.782959	77.872223
304.730286	1244.942017	3978.241943	3377.132813	78.007942
305.100281	1244.793579	3968.136719	3368.885498	77.995743
305.470276	1239.146606	3973.709717	3387.906982	78.577827
305.840179	1243.010254	3994.811523	3417.256592	79.011749
306.210144	1250.514771	4026.389893	3445.416992	79.070648
306.579987	1254.601440	4080.408203	3471.422852	78.449150
306.949890	1253.412598	4129.225098	3498.989258	78.084946
307.319702	1245.016479	4194.760254	3557.614258	78.399956
307.689484	1240.558228	4268.097168	3630.059570	78.925537
308.059265	1247.319702	4363.278320	3706.071289	78.908348
308.429016	1251.926392	4461.803711	3775.172852	78.608810
308.798737	1250.812012	4540.119141	3822.503906	78.183395
309.168396	1244.347656	4591.388184	3868.868408	78.413177
309.538055	1242.564453	4603.351074	3884.769287	78.618645
309.907684	1247.988525	4598.372559	3899.109619	79.128876
310.277313	1252.446655	4599.338867	3907.728760	79.335762
310.646851	1254.527100	4599.636230	3929.053467	79.953339
311.016388	1255.121582	4574.447266	3932.397217	80.657211
311.385895	1248.359985	4508.837891	3905.202393	81.486282
311.755371	1247.542603	4453.036621	3862.626953	81.581322
312.124817	1246.056519	4412.541504	3831.716797	81.657112
312.494232	1253.115356	4391.811035	3790.107422	80.829498
312.863617	1256.161743	4376.876465	3771.829102	80.611900
313.232971	1254.675659	4388.615723	3780.151123	80.584686
313.602295	1252.372314	4442.262695	3852.076172	81.498222
313.971619	1249.325928	4521.914551	3923.629639	81.718300
314.340820	1246.056641	4563.747559	3957.363281	81.722702
314.710083	1242.118530	4560.849609	3957.808838	81.829185
315.079285	1245.833740	4494.423340	3916.125000	82.198479
315.448486	1241.970093	4428.219238	3865.153320	82.328255
315.817596	1251.034912	4323.749512	3774.355469	82.120239
316.186707	1247.691284	4221.359863	3694.182373	82.271820
316.555786	1259.133911	4118.896973	3627.607422	82.820618
316.924866	1252.372314	4079.813721	3590.975830	82.710945
317.293884	1255.938843	4084.643555	3604.647705	83.031258
317.662872	1244.644897	4118.822754	3625.452393	82.834389
318.031830	1244.942017	4154.265137	3675.309814	83.537216
