Jaz Data File
++++++++++++++++++++++++++++++++++++
Date: Fri Jun 04 12:09:09 2021
User: jaz
Dark Spectrum Present: Yes
Reference Spectrum Present: Yes
Processed Spectrum Present: Yes
Spectrometers: JAZA3586
Integration Time (usec): 31200 (JAZA3586)
Spectra Averaged: 10 (JAZA3586)
Boxcar Smoothing: 1 (JAZA3586)
Correct for Electrical Dark: No (JAZA3586)
Strobe/Lamp Enabled: Yes (JAZA3586)
Correct for Detector Non-linearity: No (JAZA3586)
Correct for Stray Light: No (JAZA3586)
Number of Pixels in Processed Spectrum: 2048
>>>>>Begin Processed Spectral Data<<<<<
W	D	R	S	P
191.335022	0.000000	0.000000	0.000000	0.000000
191.713211	324.777222	320.319000	313.631805	249.996918
192.091385	651.337646	648.068298	636.328552	459.085236
192.469528	982.356262	979.384216	962.368835	672.514038
192.847641	986.740173	995.136414	978.121033	-102.654762
193.225739	994.839172	1006.058838	993.130188	-15.232044
193.603790	995.062073	1010.517029	997.514099	15.865631
193.981842	1012.523193	1014.975159	1003.383972	-372.730438
194.359863	1015.420959	1010.517090	1001.823547	277.279236
194.737854	1023.297058	1017.204285	1009.773987	221.952637
195.115829	1015.123779	1014.529297	1013.489075	274.979462
195.493774	1016.386902	1019.804871	1012.820374	-104.346428
195.871704	1024.931763	1020.696472	1008.436523	389.471252
196.249603	1030.355835	1029.241333	1013.043274	1553.389893
196.627457	1035.482788	1037.340332	1008.659363	-1444.026367
197.005310	1037.340332	1032.287720	1012.894592	483.823792
197.383133	1030.132935	1023.891418	1006.355957	380.948761
197.760910	1030.875977	1019.656250	1008.808044	196.688675
198.138687	1021.142273	1021.142273	1012.968994	0.000000
198.516449	1024.188843	1024.783081	1011.260071	-2175.688232
198.894180	1018.244446	1026.937866	1008.288025	-114.528236
199.271866	1010.219788	1026.120483	1004.944336	-33.177490
199.649536	1010.219910	1019.210449	996.028015	-157.853653
200.027191	1016.089783	1017.650085	995.507813	-1319.101074
200.404816	1020.919434	1015.123779	992.238525	494.869202
200.782410	1016.164063	1032.213379	1001.452087	-91.667297
201.159988	1007.173340	1040.238159	1012.151672	15.056282
201.537537	999.966003	1055.544556	1006.058899	10.962674
201.915070	1007.321960	1056.510376	1003.383972	-8.005926
202.292557	1005.761658	1062.528931	1001.526367	-7.460796
202.670029	1017.575745	1060.002563	998.405579	-45.184074
203.047485	1006.876160	1051.977905	992.461426	-31.960480
203.424911	1005.167175	1046.256592	985.254089	-48.462811
203.802292	1006.356140	1049.154419	992.907227	-31.423960
204.179688	1011.854492	1056.287476	999.520203	-27.759310
204.557037	1014.677917	1058.442261	1004.944275	-22.241034
204.934357	1008.287903	1061.265747	1006.578918	-3.225847
205.311661	1008.733704	1057.253418	999.371582	-19.295500
205.688934	1011.854431	1057.401978	996.250916	-34.257641
206.066177	1008.956543	1055.098633	996.325195	-27.374893
206.443390	1002.195007	1063.123413	999.817383	-3.902325
206.820587	992.684265	1054.578613	996.919617	6.842873
207.197769	993.873230	1054.727173	987.631836	-10.256351
207.574921	999.445862	1044.547607	986.591553	-28.500690
207.952042	1004.498535	1055.618774	985.997070	-36.192055
208.329147	1001.526428	1052.795288	989.712219	-23.043634
208.706223	1000.783386	1064.089233	1001.303467	0.821536
209.083267	999.222961	1053.241089	1000.040344	1.513164
209.460297	1000.411804	1057.996460	998.034180	-4.128920
209.837280	998.331360	1054.355591	985.254089	-23.342169
210.214264	1001.674988	1055.692993	986.294373	-28.473127
210.591217	1003.161072	1056.510376	990.975403	-22.841290
210.968124	1004.424133	1051.755005	985.699951	-39.560188
211.345016	1007.767761	1057.253418	984.436768	-47.146980
211.721893	1011.780212	1055.395874	983.916565	-63.884499
212.098724	1008.139404	1055.990234	985.105469	-48.136963
212.475555	996.993958	1055.470093	986.591492	-17.789249
212.852356	992.312927	1049.451660	981.241699	-19.376047
213.229126	994.021790	1052.943848	981.018799	-22.068121
213.605865	1000.337463	1045.513550	981.984802	-40.624725
213.982590	996.622375	1044.027466	984.808289	-24.921558
214.359283	994.913391	1042.912964	991.049805	-8.049210
214.735931	995.879395	1045.142090	989.860901	-12.217142
215.112579	996.325195	1047.073853	986.888733	-18.594507
215.489197	993.278809	1040.386719	991.644226	-3.469868
215.865799	991.644104	1045.885132	984.659668	-12.876666
216.242355	1002.343750	1049.303101	992.833008	-20.253138
216.618896	1012.523193	1054.207031	986.442871	-62.566990
216.995407	1015.420959	1044.547729	993.353027	-75.765121
217.371902	1012.523132	1039.049316	981.539001	-116.805832
217.748367	1008.585022	1036.523071	979.458496	-104.253975
218.124802	1005.390137	1041.947144	972.845520	-89.024292
218.501236	1001.897949	1049.823120	973.662842	-58.914986
218.877609	998.702881	1056.213257	972.696960	-45.219528
219.253983	995.062012	1060.448364	977.452332	-26.931736
219.630295	993.278809	1061.117188	985.774231	-11.062436
220.006592	998.108582	1059.631104	994.021790	-6.642757
220.382889	1001.897949	1062.008789	993.130188	-14.585990
220.759140	1001.749329	1060.299805	992.238525	-16.243767
221.135391	997.142395	1060.002563	990.009460	-11.347304
221.511581	993.873230	1055.841675	994.764832	1.438799
221.887772	992.164246	1054.132690	988.820618	-5.395694
222.263931	989.712219	1059.854004	983.024963	-9.533912
222.640060	993.650330	1061.339966	979.607117	-20.746473
223.016159	989.786621	1069.959106	978.343933	-14.272588
223.392212	996.845398	1073.822876	979.458496	-22.586998
223.768265	998.257019	1080.361572	980.721619	-21.357403
224.144302	1003.235352	1078.875488	991.867004	-15.029517
224.520294	995.507813	1072.411255	997.588379	2.705427
224.896286	991.123962	1071.370972	996.919617	7.222268
225.272217	987.706055	1077.092285	998.182800	11.720760
225.648148	992.387146	1084.671143	996.845276	4.830881
226.024048	989.117737	1084.596802	992.833008	3.891189
226.399902	988.300476	1083.928101	994.690491	6.682185
226.775772	987.557434	1083.184937	992.164307	4.817518
227.151581	993.130188	1084.299561	998.257080	5.623481
227.527374	996.845276	1092.324341	995.284973	-1.634183
227.903137	998.479919	1098.268555	995.136414	-3.350588
228.278870	1002.269348	1112.014526	994.987732	-6.635022
228.654572	1005.612976	1116.249878	992.684265	-11.685713
229.030273	1004.424133	1127.618164	996.473694	-6.453591
229.405930	997.959900	1133.636719	1000.560364	1.916660
229.781555	999.297302	1137.500366	995.582214	-2.688137
230.157181	998.851501	1142.850220	993.650208	-3.612042
230.532761	1003.755432	1142.850220	986.294250	-12.553441
230.908325	1004.424133	1139.283569	988.523438	-11.790569
231.283859	1004.944336	1130.367310	987.260254	-14.099556
231.659332	1007.396301	1123.754395	988.077637	-16.602768
232.034821	1005.612976	1114.615112	988.969238	-15.269185
232.410263	1003.681152	1117.215698	993.873230	-8.638712
232.785690	999.074402	1116.918457	994.616211	-3.783128
233.161087	994.839172	1126.429321	997.811218	2.258563
233.536469	997.811279	1123.308472	992.833008	-3.966839
233.911804	997.588379	1130.144409	995.062012	-1.905886
234.287140	1001.972168	1134.528320	992.238525	-7.343033
234.662430	1002.566650	1142.701538	989.712219	-9.172898
235.037704	1008.436523	1142.404297	992.981628	-11.536278
235.412933	1001.749268	1141.364136	995.284973	-4.630090
235.788162	1004.275574	1133.413574	1000.337585	-3.049442
236.163345	999.222961	1136.162964	993.353210	-4.286367
236.538513	1005.687317	1143.147339	987.631836	-13.135077
236.913635	994.839172	1149.983276	988.449036	-4.118840
237.288742	989.489441	1156.893311	985.105469	-2.618800
237.663834	991.718445	1160.014038	982.802185	-5.297976
238.038879	995.805115	1165.958252	985.551331	-6.026209
238.413910	996.845398	1169.896362	997.737000	0.515225
238.788910	991.049744	1163.209106	1003.458252	7.207571
239.163879	989.786560	1171.456665	1001.154785	6.257620
239.538834	990.603821	1182.379272	995.730713	2.673383
239.913757	993.278748	1208.236694	995.284973	0.933311
240.288651	1000.114685	1226.960938	1003.755432	1.604940
240.663528	1003.755554	1247.245483	1002.789551	-0.396732
241.038361	1005.092957	1268.644653	1004.944336	-0.056391
241.413177	999.891785	1296.805420	1007.544922	2.577564
241.787979	993.353027	1325.634766	1013.043274	5.925768
242.162735	993.947510	1360.854370	1013.860596	5.427286
242.537476	989.935242	1385.745728	1006.207458	4.111113
242.912170	993.130188	1408.333618	1005.464417	2.970647
243.286865	992.015625	1407.219238	1009.848328	4.294930
243.661514	992.312805	1389.906738	1016.907043	6.185768
244.036148	997.439758	1367.615845	1011.854492	3.894021
244.410751	990.901062	1357.436401	1010.888611	5.453103
244.785339	993.650208	1360.111328	1003.012512	2.554788
245.159882	999.074402	1377.572388	1010.665710	3.062449
245.534378	1010.219788	1411.826050	1016.609863	1.591130
245.908890	1012.374695	1467.850220	1014.009216	0.358860
246.283356	1007.842102	1530.487305	1016.089661	1.578042
246.657791	998.925842	1606.573364	1009.922546	1.809718
247.032196	1001.080566	1677.532593	1009.848206	1.296121
247.406586	997.959778	1726.943848	1010.665588	1.742948
247.780960	1000.114563	1733.259399	1015.346680	2.077641
248.155289	1002.046448	1705.990356	1030.132813	3.989858
248.529602	1000.188965	1661.705933	1026.714966	4.009875
248.903870	1006.281738	1609.322632	1017.427185	1.848207
249.278122	1001.303406	1566.524048	1010.888489	1.695813
249.652344	998.702881	1524.766113	1010.442688	2.231634
250.026550	989.935120	1488.952148	1016.312561	5.285880
250.400711	990.455322	1464.358032	1006.355957	3.355253
250.774857	991.049805	1458.785522	1004.201233	2.811722
251.148987	992.461487	1472.680054	997.439758	1.036668
251.523071	997.588318	1493.633301	1000.857666	0.659083
251.897125	1003.755371	1523.057251	1004.721436	0.186031
252.271164	1001.006287	1539.403809	1004.349854	0.621022
252.645187	1004.498535	1549.880493	1006.356018	0.340584
253.019165	1007.322083	1538.660767	1004.275574	-0.573365
253.393112	1013.414856	1527.886841	1010.888489	-0.491060
253.767044	1004.944336	1500.692017	1015.569519	2.143264
254.140930	1004.647034	1480.556030	1015.495300	2.279483
254.514801	1002.195129	1470.079468	1010.739929	1.826263
254.888657	1003.978455	1459.082520	1005.761719	0.391837
255.262466	998.034180	1462.500488	1002.120850	0.879864
255.636276	994.467590	1480.556030	1005.910339	2.354047
256.010010	1001.377747	1513.249146	1014.083496	2.482215
256.383759	1003.606873	1549.880371	1023.074158	3.563652
256.757446	1004.944336	1576.480835	1029.464233	4.290172
257.131134	997.959900	1618.461792	1024.263062	4.239014
257.504791	992.387207	1662.671875	1022.777039	4.533869
257.878418	999.594482	1737.420532	1023.297058	3.212488
258.252014	1004.126953	1814.175171	1022.702637	2.293158
258.625580	1008.287903	1932.019165	1024.857422	1.793760
258.999115	1009.996887	2061.008789	1028.423950	1.753269
259.372650	1011.408691	2205.230225	1039.049194	2.315296
259.746124	1007.842102	2316.833008	1039.866577	2.446501
260.119598	1000.783386	2377.092773	1046.182251	3.298594
260.493042	997.662598	2377.315674	1048.188477	3.662216
260.866425	997.216797	2318.096436	1053.909790	4.292064
261.239838	994.913391	2215.632813	1045.959351	4.181629
261.613159	986.294373	2109.751465	1033.848022	4.232797
261.986511	993.501648	2017.987427	1028.423950	3.408764
262.359802	995.582092	1960.402954	1029.984253	3.565653
262.733063	997.885437	1926.000977	1038.974976	4.427201
263.106293	991.644104	1903.412720	1038.454712	5.134045
263.479523	990.603943	1888.626465	1026.120483	3.954972
263.852692	993.724609	1878.224121	1019.730530	2.940185
264.225861	996.993835	1871.908325	1020.770752	2.717628
264.598969	996.028015	1878.001343	1028.646851	3.698392
264.972076	1000.040283	1891.004272	1029.538574	3.310829
265.345154	991.792786	1939.003784	1029.687134	4.000624
265.718201	990.529602	1986.631714	1031.396118	4.102643
266.091217	992.535706	2048.600342	1032.213501	3.757137
266.464203	1001.303467	2096.896973	1037.934692	3.343505
266.837158	1003.978333	2153.590088	1037.637573	2.927879
267.210114	999.743164	2187.917725	1041.798462	3.539488
267.583038	993.724609	2211.991943	1040.461060	3.836305
267.955902	995.062073	2216.301514	1041.947144	3.839138
268.328766	994.690491	2224.623535	1041.352539	3.793869
268.701569	1005.092834	2230.939209	1040.089478	2.854896
269.074371	1002.269348	2254.121826	1034.516724	2.575972
269.447144	997.737000	2293.799316	1033.402222	2.751814
269.819885	992.610046	2368.399170	1037.934692	3.294447
270.192596	992.833008	2471.308350	1048.411255	3.759160
270.565277	994.839172	2595.765381	1055.618774	3.796527
270.937927	995.953796	2717.844971	1057.104858	3.551390
271.310577	997.811279	2810.054688	1063.494873	3.624435
271.683136	1000.188965	2878.635986	1073.971558	3.927851
272.055725	994.616211	2899.663818	1071.370972	4.029021
272.428284	997.291077	2881.459717	1067.210083	3.710868
272.800812	993.873230	2824.246338	1058.665161	3.539821
273.173279	992.312805	2748.977783	1057.179077	3.692580
273.545776	986.517273	2702.315430	1056.733276	4.092323
273.918152	986.145752	2680.173584	1058.516602	4.272117
274.290558	988.449036	2678.687256	1063.717773	4.453144
274.662964	989.415039	2678.093018	1062.974731	4.356052
275.035278	989.489258	2684.631836	1060.299683	4.177255
275.407593	993.575928	2716.953369	1061.562866	3.944983
275.779907	1001.377747	2770.451172	1064.014893	3.540675
276.152161	1005.018555	2823.652100	1066.912720	3.403333
276.524384	1004.498474	2863.701172	1063.123291	3.153224
276.896606	995.805115	2888.072510	1064.089233	3.608587
277.268799	992.907227	2897.657471	1069.661987	4.029650
277.640930	990.455322	2902.858643	1074.863159	4.413705
278.013031	1002.492249	2903.602295	1084.299683	4.303140
278.385162	999.297302	2911.626709	1082.664917	4.359480
278.757233	1001.451965	2918.387939	1077.612427	3.973031
279.129272	990.306641	2942.387695	1068.844727	4.023301
279.501282	988.523438	2977.978516	1067.953003	3.992529
279.873230	987.780457	3051.092529	1063.346313	3.662357
280.245178	989.637939	3150.658203	1067.878784	3.620551
280.617126	999.000183	3270.582764	1069.290527	3.094334
280.988983	996.028015	3393.330811	1086.603027	3.778205
281.360870	1007.321960	3510.506104	1087.123047	3.187983
281.732697	1001.154846	3589.712646	1098.119873	3.745909
282.104492	1013.489075	3616.313477	1092.175659	3.023123
282.476288	1002.492371	3615.942139	1096.039429	3.579448
282.848053	1006.356140	3617.948486	1083.705200	2.961759
283.219757	999.594543	3628.721924	1087.940430	3.360274
283.591461	998.777161	3628.796631	1087.197388	3.361961
283.963135	1004.424133	3654.059326	1094.924805	3.415590
284.334747	1002.715149	3715.433350	1093.661743	3.352600
284.706360	1006.950500	3799.915283	1091.432617	3.024818
285.077942	1006.504639	3889.450195	1098.640015	3.195876
285.449524	1009.773987	3978.687744	1112.014526	3.443702
285.821014	1010.145508	4007.963135	1114.392212	3.477420
286.192535	1001.303406	4052.396484	1113.574829	3.679712
286.563995	1007.322021	4046.526367	1110.974243	3.410505
286.935425	1008.585205	4038.724609	1112.609009	3.432971
287.306824	1010.517029	3954.093506	1103.841187	3.170434
287.678223	1003.829773	3867.233643	1089.055054	2.976363
288.049561	998.257080	3807.197266	1090.838257	3.295947
288.420898	998.257080	3813.289795	1091.581177	3.315205
288.792145	999.222961	3854.528076	1095.073486	3.356927
289.163452	1001.600769	3958.254639	1096.633789	3.214209
289.534668	998.628601	4071.195068	1100.423340	3.313020
289.905914	996.622375	4196.989746	1116.175415	3.735604
290.277039	995.136292	4312.010254	1116.918457	3.671595
290.648193	999.445984	4366.102051	1119.519043	3.566538
291.019318	1003.532532	4367.514160	1114.912231	3.310948
291.390381	1004.275574	4291.799316	1110.156860	3.220700
291.761475	1008.436523	4220.914551	1107.927856	3.097028
292.132507	997.662598	4177.818848	1106.293213	3.415889
292.503510	997.216797	4169.720215	1106.739136	3.452237
292.874481	995.284973	4208.357422	1111.420044	3.614455
293.245422	997.811218	4309.260254	1113.500610	3.493618
293.616364	996.845276	4454.894043	1127.618042	3.781692
293.987213	998.405579	4609.889160	1130.738770	3.664233
294.358093	1000.114563	4721.343262	1135.791382	3.646022
294.728943	1000.931946	4824.178223	1131.704712	3.420464
295.099731	996.548157	4936.003906	1133.413696	3.474225
295.470490	996.250916	5057.712402	1132.373535	3.351568
295.841248	997.959900	5153.933594	1136.534302	3.334343
296.211975	994.616211	5265.016113	1139.878052	3.401598
296.582642	992.238586	5383.826172	1147.382690	3.532757
296.953308	993.278809	5451.516113	1149.611694	3.506608
297.323883	995.136292	5441.485352	1148.571411	3.450811
297.694519	1000.188782	5312.867188	1143.147339	3.314844
298.065063	997.291077	5188.484375	1133.042114	3.238959
298.435608	997.662598	5003.916504	1130.961670	3.327275
298.806122	996.325195	4829.751465	1128.509766	3.448210
299.176575	996.622375	4654.916504	1129.401489	3.629536
299.547028	1000.931946	4559.289063	1118.924805	3.315936
299.917450	1000.263245	4522.806641	1113.426270	3.212537
300.287872	1000.708984	4524.218262	1110.380005	3.112551
300.658234	996.028015	4503.265137	1113.352051	3.345198
301.028564	993.873230	4469.754395	1111.494507	3.383927
301.398865	996.176575	4438.918945	1115.581055	3.468296
301.769135	1007.842102	4389.656250	1111.643066	3.069387
302.139374	1009.699707	4354.957031	1114.243652	3.125139
302.509583	1009.105286	4296.183105	1101.760742	2.818779
302.879791	994.839111	4255.391113	1097.079590	3.135680
303.249939	1001.154846	4199.515625	1094.479004	2.917875
303.620087	998.331360	4155.528320	1100.423340	3.233627
303.990173	998.257019	4135.689941	1103.618286	3.358200
304.360260	988.746399	4138.661621	1110.528564	3.866205
304.730286	995.805115	4139.330566	1106.813354	3.531329
305.100281	996.250977	4138.438477	1105.921753	3.490268
305.470276	994.319031	4134.945801	1104.138428	3.496735
305.840179	990.529602	4166.227539	1103.172485	3.547028
306.210144	993.130188	4203.082031	1100.125977	3.333252
306.579987	1000.783386	4259.700684	1094.627686	2.879616
306.949890	998.034180	4310.003906	1102.280884	3.147574
307.319702	1001.154785	4391.067871	1117.587280	3.434675
307.689484	997.142395	4482.237793	1124.125854	3.643615
308.059265	999.297180	4595.920410	1132.744873	3.710361
308.429016	990.158020	4694.817383	1127.320679	3.702436
308.798737	991.346924	4780.339844	1123.159790	3.478837
309.168396	987.334534	4824.252930	1122.193970	3.514785
309.538055	993.724609	4839.855957	1131.184570	3.573980
309.907684	996.325195	4837.999023	1143.444458	3.829561
310.277313	998.554382	4872.400879	1140.769653	3.671164
310.646851	994.244690	4868.239746	1139.358032	3.745832
311.016388	992.684265	4854.270996	1129.549927	3.544286
311.385895	990.083679	4778.333496	1132.670776	3.763931
311.755371	1001.303467	4719.560547	1125.760620	3.347191
312.124817	998.554382	4664.501953	1117.141479	3.234828
312.494232	1003.532532	4613.753418	1106.590454	2.854615
312.863617	1008.213623	4593.394043	1102.578003	2.632068
313.232971	1010.814209	4627.944824	1107.259155	2.666338
313.602295	1007.693542	4714.656250	1110.528442	2.774101
313.971619	997.737000	4810.357910	1117.364258	3.137665
314.340820	1002.120789	4834.283691	1126.429199	3.243819
314.710083	999.817383	4814.593262	1123.828735	3.250816
315.079285	1001.749329	4727.510742	1121.971069	3.226770
315.448486	1002.938171	4639.536133	1109.191040	2.921766
315.817596	1006.133118	4527.933594	1109.191040	2.926285
316.186707	1004.349854	4443.079590	1104.584106	2.914863
316.555786	1004.424133	4343.291504	1108.819458	3.126669
316.924866	1004.870056	4280.951660	1100.794678	2.928029
317.293884	1006.281738	4248.629395	1096.410889	2.779750
317.662872	1002.789551	4267.799805	1088.460449	2.623909
318.031830	999.445862	4306.065918	1100.497559	3.056042
318.400757	998.182800	4358.151855	1103.989868	3.149049
318.769684	999.743103	4402.287598	1113.054810	3.330205
319.138550	1005.910217	4418.634277	1107.259155	2.969737
319.507416	1006.727539	4388.244629	1111.345825	3.093827
319.876190	995.730774	4335.786621	1108.522339	3.376936
320.244995	992.015625	4252.716309	1105.475952	3.479630
320.613770	988.746338	4205.311035	1101.240601	3.497342
320.982483	997.291199	4192.382813	1093.513184	3.011556
