Jaz Data File
++++++++++++++++++++++++++++++++++++
Date: Fri Jun 04 12:54:46 2021
User: jaz
Dark Spectrum Present: Yes
Reference Spectrum Present: Yes
Processed Spectrum Present: Yes
Spectrometers: JAZA3586
Integration Time (usec): 40000 (JAZA3586)
Spectra Averaged: 10 (JAZA3586)
Boxcar Smoothing: 1 (JAZA3586)
Correct for Electrical Dark: No (JAZA3586)
Strobe/Lamp Enabled: Yes (JAZA3586)
Correct for Detector Non-linearity: No (JAZA3586)
Correct for Stray Light: No (JAZA3586)
Number of Pixels in Processed Spectrum: 2048
>>>>>Begin Processed Spectral Data<<<<<
W	D	R	S	P
191.335022	0.000000	0.000000	0.000000	0.000000
191.713211	424.640045	428.652374	430.955780	157.408203
192.091385	846.753845	859.013672	864.586426	145.455399
192.469528	1283.133667	1284.322388	1298.811523	1318.884766
192.847641	1300.743530	1286.997437	1300.743530	-0.000000
193.225739	1322.068359	1296.508179	1299.183105	89.534790
193.603790	1320.879517	1312.483276	1300.371948	244.247040
193.981842	1316.569946	1320.507935	1305.498657	-281.140717
194.359863	1311.517334	1326.526489	1311.814453	1.979586
194.737854	1320.433716	1328.755615	1317.535767	-34.823170
195.115829	1324.743164	1333.882446	1323.703003	-11.381212
195.493774	1330.464478	1333.882446	1324.000122	-189.128571
195.871704	1333.287964	1328.012573	1321.771118	218.312668
196.249603	1341.015503	1325.783569	1324.891846	105.854301
196.627457	1339.083618	1321.325317	1325.040405	79.079712
197.005310	1337.448975	1324.074585	1328.086914	69.999908
197.383133	1336.260132	1323.703003	1323.703003	100.000000
197.760910	1337.746216	1323.257202	1326.600708	76.923851
198.138687	1332.767944	1327.120972	1326.303589	114.474709
198.516449	1331.504761	1324.891846	1324.074585	112.358559
198.894180	1329.275757	1324.594604	1324.743164	96.826431
199.271866	1323.405762	1314.043579	1320.507935	30.952475
199.649536	1314.786621	1314.340820	1315.752563	-216.675797
200.027191	1305.350220	1314.266479	1314.266479	100.000000
200.404816	1308.693726	1323.405762	1315.083862	43.434753
200.782410	1306.984863	1334.402466	1322.365479	56.097595
201.159988	1308.470825	1347.999878	1326.972290	46.804726
201.537537	1319.021973	1351.120605	1329.201294	31.712631
201.915070	1320.730835	1354.910034	1327.418091	19.565279
202.292557	1328.607056	1349.931763	1319.244751	-43.903557
202.670029	1321.696777	1358.328125	1315.604004	-16.632677
203.047485	1324.445923	1354.315674	1305.721680	-62.686306
203.424911	1316.644165	1357.807861	1308.247925	-20.397198
203.802292	1313.523438	1351.194946	1307.802124	-15.187375
204.179688	1312.409058	1339.603638	1319.764893	27.048901
204.557037	1314.340820	1338.266357	1321.473999	29.814079
204.934357	1311.665894	1337.300415	1324.520386	50.145241
205.311661	1305.201538	1348.891724	1322.960083	40.646530
205.688934	1300.371948	1336.185913	1321.771118	59.750912
206.066177	1294.873535	1337.968994	1329.498657	80.345177
206.443390	1302.229492	1342.129883	1328.532715	65.922218
206.820587	1311.814575	1350.749146	1328.086792	41.793751
207.197769	1314.340820	1357.807861	1321.696777	16.923069
207.574921	1309.808350	1355.132935	1316.644165	15.081915
207.952042	1303.566895	1349.931763	1314.192261	22.916847
208.329147	1304.681519	1337.448853	1321.548218	51.474129
208.706223	1313.077759	1336.111450	1332.842163	85.806496
209.083267	1313.077759	1348.148438	1332.693726	55.932671
209.460297	1318.798950	1357.064819	1326.526489	20.194338
209.837280	1305.944580	1354.687134	1315.678223	19.969496
210.214264	1301.635010	1349.783203	1312.334595	22.222195
210.591217	1299.034546	1337.449097	1303.938477	12.765816
210.968124	1302.378052	1341.387085	1309.957031	19.428782
211.345016	1308.842407	1343.096069	1314.563721	16.702780
211.721893	1307.505005	1352.532593	1319.319092	26.237442
212.098724	1305.573120	1352.086670	1317.981689	26.677322
212.475555	1302.675415	1353.349731	1320.285034	34.750580
212.852356	1304.161377	1352.458130	1324.148804	41.384617
213.229126	1305.350220	1356.098999	1318.278931	25.475904
213.605865	1304.458496	1352.681030	1317.535767	27.118587
213.982590	1309.362549	1356.173218	1311.665894	4.920555
214.359283	1309.659668	1347.479858	1315.529663	15.520798
214.735931	1311.220093	1341.461304	1313.523438	7.616576
215.112579	1301.189331	1335.740112	1319.319214	52.473148
215.489197	1299.034546	1342.055786	1320.730835	50.431576
215.865799	1299.703247	1345.102173	1319.467651	43.534962
216.242355	1297.325562	1344.582153	1314.786743	36.949726
216.618896	1293.758911	1341.164185	1313.969360	42.633335
216.995407	1295.319336	1343.764771	1311.368774	33.128899
217.371902	1300.148926	1345.770874	1309.511108	20.521225
217.748367	1297.028198	1343.616089	1304.978638	17.065464
218.124802	1300.074585	1346.142456	1303.938477	8.387389
218.501236	1296.433960	1348.074219	1302.006714	10.791492
218.877609	1302.303711	1352.755371	1309.213989	13.696831
219.253983	1296.136719	1351.938110	1318.130249	39.413944
219.630295	1302.155151	1357.807983	1320.507935	32.977268
220.006592	1306.910522	1352.903931	1320.582275	29.725462
220.382889	1313.597778	1354.241333	1319.616333	14.808141
220.759140	1318.278809	1349.931763	1323.405762	16.197392
221.135391	1308.470825	1357.956421	1321.250977	25.826002
221.511581	1302.749634	1357.064819	1321.548218	34.610180
221.887772	1295.913818	1357.287720	1317.758667	35.593060
222.263931	1305.944702	1350.080444	1323.480103	39.730610
222.640060	1308.025024	1354.018555	1323.405762	33.441090
223.016159	1309.436890	1356.619019	1321.028198	24.567160
223.392212	1306.464722	1357.510742	1318.873291	24.308594
223.768265	1308.470825	1349.411743	1314.860962	15.608191
224.144302	1308.025146	1348.520020	1317.312988	22.935846
224.520294	1308.470947	1357.584961	1311.220093	5.597477
224.896286	1302.006714	1370.885254	1321.176636	27.831488
225.272217	1302.006714	1379.801636	1326.080688	30.945433
225.648148	1308.768188	1379.801392	1330.538696	30.648354
226.024048	1314.043579	1373.485718	1327.343750	22.374987
226.399902	1316.569824	1362.711914	1329.201294	27.375158
226.775772	1310.774292	1361.597290	1333.510864	44.736778
227.151581	1307.356323	1365.683960	1331.133179	40.764305
227.527374	1293.164551	1384.631226	1335.665649	46.466213
227.903137	1293.015991	1398.674438	1336.483032	41.139202
228.278870	1296.731079	1412.197388	1345.176392	41.956234
228.654572	1310.031250	1420.890991	1348.743042	34.919613
229.030273	1309.585327	1435.454102	1356.619019	37.367245
229.405930	1306.910522	1448.977417	1354.984375	33.838886
229.781555	1302.823853	1453.138306	1350.897827	31.982269
230.157181	1296.879761	1451.578003	1338.934937	27.185297
230.532761	1295.839478	1445.410767	1330.538818	23.199200
230.908325	1295.913696	1437.311890	1334.105347	27.009998
231.283859	1301.040527	1427.503906	1341.387085	31.903748
231.659332	1296.136719	1414.277954	1340.941284	37.924580
232.034821	1297.845581	1410.934204	1339.901001	37.188019
232.410263	1298.514282	1407.590820	1333.436646	32.016384
232.785690	1299.331665	1412.940552	1344.210571	39.502991
233.161087	1296.433960	1418.364746	1346.736816	41.255257
233.536469	1301.114868	1417.473022	1354.984497	46.296394
233.911804	1303.789917	1419.256348	1358.550903	47.425892
234.287140	1300.594849	1418.438965	1355.132935	46.279854
234.662430	1303.789917	1429.955933	1350.600586	37.102440
235.037704	1302.006714	1435.008423	1349.411743	35.642422
235.412933	1312.854858	1436.717407	1351.269165	31.013657
235.788162	1297.251343	1435.082886	1354.092773	41.239784
236.163345	1301.858032	1437.088867	1354.835815	39.175816
236.538513	1295.616577	1442.884644	1358.476685	42.684139
236.913635	1300.000366	1450.166138	1356.990601	37.951550
237.288742	1291.975708	1453.212524	1353.944214	38.433224
237.663834	1286.997437	1458.785522	1360.482788	42.776745
238.038879	1291.529907	1458.116699	1367.244263	45.450394
238.413910	1300.966309	1468.964844	1373.411499	43.122513
238.788910	1313.597778	1468.370239	1374.600464	39.414433
239.163879	1314.786621	1478.104004	1377.795288	38.580502
239.538834	1312.334717	1478.772583	1386.637329	44.642853
239.913757	1305.721802	1495.936646	1385.448608	41.914082
240.288651	1300.223267	1508.345215	1391.467163	43.841553
240.663528	1298.960327	1529.298706	1398.823120	43.354820
241.038361	1301.040649	1541.484253	1411.974609	46.137207
241.413177	1309.288208	1571.651245	1433.745239	47.436954
241.787979	1310.551392	1610.140015	1452.023804	47.222225
242.162735	1307.950806	1656.876343	1477.063843	48.466797
242.537476	1300.074707	1675.006226	1485.757202	49.524376
242.912170	1300.074829	1676.789429	1491.181274	50.729771
243.286865	1295.913696	1665.941284	1488.580688	52.068279
243.661514	1297.771362	1655.390503	1489.249390	53.542442
244.036148	1296.359741	1646.994141	1484.716919	53.718967
244.410751	1299.257324	1641.421509	1479.961548	52.812138
244.785339	1299.257446	1636.963257	1469.410522	50.385002
245.159882	1297.325562	1650.189087	1483.230957	52.684788
245.534378	1295.170776	1678.275513	1500.320679	53.549301
245.908890	1290.563965	1730.956055	1541.261353	56.925953
246.283356	1291.827148	1793.964844	1572.542847	55.904129
246.657791	1297.102539	1862.992188	1609.174194	55.147087
247.032196	1304.458618	1920.130859	1647.217163	55.672241
247.406586	1302.898071	1966.570190	1671.439819	55.530697
247.780960	1307.876587	1974.817749	1688.455078	57.063278
248.155289	1313.226440	1975.709351	1671.959595	54.149799
248.529602	1318.056030	1928.229858	1655.613159	55.321468
248.903870	1310.105591	1877.183960	1619.353394	54.533520
249.278122	1302.155151	1814.621094	1598.177246	57.764248
249.652344	1301.040649	1775.983765	1567.267212	56.054409
250.026550	1304.087036	1756.293457	1558.722290	56.309517
250.400711	1299.851807	1741.878540	1553.521118	57.387775
250.774857	1297.325562	1741.061523	1560.357056	59.276577
251.148987	1304.978638	1754.658691	1562.140503	57.187740
251.523071	1309.882690	1771.896973	1565.335449	55.291096
251.897125	1315.455444	1790.844116	1584.059570	56.502003
252.271164	1306.464722	1793.741821	1600.034790	60.247047
252.645187	1298.662964	1794.931030	1607.242188	62.179947
253.019165	1299.851807	1788.912476	1600.034790	61.379498
253.393112	1298.737183	1778.287109	1587.700562	60.257206
253.767044	1297.697144	1760.008667	1580.493164	61.170013
254.140930	1299.257324	1736.677734	1558.871094	59.351086
254.514801	1303.418335	1718.250610	1551.886597	59.896076
254.888657	1312.631958	1716.095703	1546.016602	57.845257
255.262466	1300.966431	1722.931274	1552.035156	59.499916
255.636276	1295.245117	1747.228516	1559.019897	58.359394
256.010010	1289.746704	1772.268555	1561.917603	56.405922
256.383759	1302.303711	1798.571655	1576.332397	55.217888
256.757446	1302.526733	1826.509399	1591.787231	55.204212
257.131134	1311.442993	1860.763062	1625.594849	57.189220
257.504791	1309.882690	1901.332397	1663.340698	59.761295
257.878418	1315.752563	1956.539063	1707.848022	61.189720
258.252014	1311.443115	2031.956421	1760.528687	62.328560
258.625580	1306.984863	2133.454102	1829.407349	63.211365
258.999115	1300.520508	2256.276367	1911.511841	63.927551
259.372650	1303.269653	2378.578857	1991.387207	63.992531
259.746124	1300.000366	2486.614990	2063.535156	64.345642
260.119598	1304.235718	2543.679443	2106.259277	64.708351
260.493042	1300.074707	2545.462646	2106.705078	64.769409
260.866425	1304.904419	2502.367188	2073.491943	64.184669
261.239838	1308.025024	2416.175781	2016.947266	63.973446
261.613159	1309.882690	2321.439941	1960.328613	64.301445
261.986511	1304.087158	2227.075439	1898.062866	64.353546
262.359802	1299.554565	2161.020508	1857.791016	64.800758
262.733063	1297.102661	2133.156982	1832.602417	64.050835
263.106293	1298.142822	2118.519287	1820.565430	63.680840
263.479523	1302.303711	2111.980469	1815.438477	63.375263
263.852692	1305.127319	2108.339600	1812.243530	63.136013
264.225861	1301.932251	2105.144775	1814.472290	63.811260
264.598969	1298.291504	2114.061279	1816.552856	63.530346
264.972076	1299.777466	2131.002197	1827.549805	63.493340
265.345154	1303.864258	2167.113037	1857.047974	64.081612
265.718201	1300.223267	2210.728760	1889.592407	64.729881
266.091217	1305.573120	2258.728516	1928.006958	65.302452
266.464203	1305.424438	2308.808350	1961.666016	65.402840
266.837158	1313.151978	2347.966064	1994.210815	65.814606
267.210114	1304.235718	2380.213379	2013.529663	65.920883
267.583038	1310.402832	2390.541504	2022.445801	65.921440
267.955902	1301.783569	2405.402100	2037.974976	66.707054
268.328766	1302.749512	2389.129883	2043.176147	68.155380
268.701569	1293.981812	2403.024170	2053.207031	68.457733
269.074371	1292.272949	2419.742432	2046.519897	66.897324
269.447144	1295.170776	2463.878174	2077.875732	66.971848
269.819885	1302.229614	2532.608398	2125.354980	66.900162
270.192596	1308.768066	2613.747070	2195.199463	67.926872
270.565277	1311.442993	2737.089111	2264.003662	66.816071
270.937927	1304.309937	2847.577393	2329.984619	66.461243
271.310577	1307.653442	2934.437500	2391.209961	66.607277
271.683136	1304.458496	2992.616455	2426.503906	66.465668
272.055725	1313.151978	2996.406006	2440.769775	66.990349
272.428284	1309.437012	2981.619873	2425.835205	66.762924
272.800812	1299.331665	2935.626221	2408.002686	67.754982
273.173279	1293.981812	2876.704102	2362.900879	67.536743
273.545776	1289.598022	2841.781982	2340.238525	67.687889
273.918152	1304.012817	2807.454102	2307.693604	66.758896
274.290558	1303.715698	2797.943359	2309.328369	67.299828
274.662964	1307.430786	2797.794922	2308.882813	67.195122
275.035278	1300.743408	2814.810303	2328.647461	67.890266
275.407593	1303.269653	2844.976807	2337.489258	67.082756
275.779907	1307.430664	2886.363525	2363.643799	66.894112
276.152161	1311.220215	2931.316650	2399.903564	67.198677
276.524384	1308.322388	2975.526611	2441.067383	67.942787
276.896606	1306.316162	2998.634766	2463.803955	68.396568
277.268799	1304.830200	3004.430664	2466.850342	68.370193
277.640930	1307.430664	3003.984619	2479.184570	69.066704
278.013031	1306.093140	3007.253906	2472.645752	68.573921
278.385162	1302.006470	3010.968994	2477.550049	68.786972
278.757233	1295.839478	3017.210693	2474.354980	68.463760
279.129272	1299.851807	3044.033936	2505.116211	69.101982
279.501282	1301.932251	3075.240967	2526.589844	69.060600
279.873230	1305.052979	3142.262451	2575.629639	69.157967
280.245178	1300.297607	3229.121826	2633.659912	69.128242
280.617126	1299.034546	3337.752197	2725.943848	69.990532
280.988983	1301.412231	3441.033203	2796.382813	69.870811
281.360870	1298.440063	3537.775391	2877.372803	70.508987
281.732697	1297.028320	3619.954346	2923.589111	70.022064
282.104492	1296.136597	3657.179932	2966.090088	70.729469
282.476288	1297.325317	3658.443359	2963.861328	70.582489
282.848053	1299.851685	3638.975586	2953.235596	70.683891
283.219757	1300.891968	3636.969482	2941.570313	70.232185
283.591461	1302.452393	3626.269775	2942.016357	70.554771
283.963135	1295.839478	3662.678467	2961.186279	70.361649
284.334747	1295.467896	3707.408447	2999.155029	70.635536
284.706360	1293.758911	3793.897217	3064.615479	70.830345
285.077942	1301.040649	3872.806396	3132.454102	71.212303
285.449524	1294.204834	3949.263672	3195.091064	71.594879
285.821014	1294.427734	3972.817627	3204.899170	71.329102
286.192535	1291.604248	4002.835938	3242.793701	71.966904
286.563995	1296.359497	4000.607422	3238.707031	71.825790
286.935425	1295.096558	3988.124268	3233.802979	71.989838
287.306824	1296.285278	3911.889648	3174.732422	71.816940
287.678223	1298.662964	3856.534180	3114.175781	70.977493
288.049561	1297.696899	3808.534424	3092.479248	71.481422
288.420898	1299.926147	3807.197266	3074.795166	70.788879
288.792145	1302.155151	3832.608643	3106.373779	71.300209
289.163452	1306.761841	3916.496826	3153.704834	70.771286
289.534668	1297.696899	4027.579102	3232.762939	70.884598
289.905914	1293.684692	4122.537598	3311.300781	71.322762
290.277039	1295.988159	4208.877441	3384.043213	71.683304
290.648193	1300.594849	4249.224121	3421.789063	71.938316
291.019318	1296.508179	4258.585938	3434.271729	72.171089
291.390381	1291.975708	4208.431641	3397.640625	72.199440
291.761475	1296.582397	4126.996094	3370.520264	73.273323
292.132507	1305.870239	4090.067627	3334.557617	72.864357
292.503510	1305.127319	4095.565674	3321.554443	72.262016
292.874481	1309.065308	4156.419434	3340.130127	71.331657
293.245422	1304.904297	4233.174316	3401.801025	71.608719
293.616364	1302.898193	4345.297363	3503.224609	72.322083
293.987213	1296.582520	4482.312012	3605.093750	72.464134
294.358093	1288.632202	4586.261719	3690.244873	72.828461
294.728943	1293.238892	4688.427246	3755.780029	72.530319
295.099731	1297.399780	4763.918945	3823.840820	72.881210
295.470490	1302.006714	4871.286621	3891.233398	72.541992
295.841248	1306.018921	4955.100098	3959.666016	72.720963
296.211975	1302.823853	5066.331543	4030.179688	72.468452
296.582642	1301.709351	5171.172363	4124.989746	72.963104
296.953308	1296.508179	5220.955078	4161.843750	73.012466
297.323883	1291.901489	5207.803223	4165.039063	73.371033
297.694519	1294.724976	5113.513184	4090.067627	73.199738
298.065063	1293.758911	5003.545410	4028.767822	73.724152
298.435608	1300.817749	4873.887207	3922.663330	73.377968
298.806122	1295.839478	4701.059082	3797.315186	73.460037
299.176575	1297.771362	4553.122559	3678.058838	73.119232
299.547028	1290.786987	4430.819824	3600.115479	73.544731
299.917450	1298.142822	4389.582031	3571.731689	73.544670
300.287872	1299.851929	4382.077637	3564.153076	73.463188
300.658234	1305.796021	4389.433105	3564.375732	73.244011
301.028564	1299.331665	4372.121094	3568.833984	73.858047
301.398865	1299.851807	4353.173828	3542.085205	73.435867
301.769135	1297.251099	4301.013184	3511.843750	73.727303
302.139374	1298.365845	4275.081543	3474.098389	73.091705
302.509583	1288.632202	4232.654297	3455.893799	73.615677
302.879791	1284.322632	4192.308105	3423.348877	73.556984
303.249939	1287.889038	4135.317871	3385.974854	73.683525
303.620087	1289.746460	4085.089111	3352.464600	73.791245
303.990173	1295.244995	4064.729736	3335.152100	73.656555
304.360260	1297.696899	4069.262451	3341.987549	73.759422
304.730286	1305.350220	4063.912842	3345.034180	73.940102
305.100281	1308.842407	4046.749268	3351.795898	74.617348
305.470276	1302.898315	4046.303467	3355.213623	74.809052
305.840179	1299.480347	4073.498047	3373.046143	74.749557
306.210144	1295.468018	4113.621582	3403.584961	74.804901
306.579987	1295.913696	4158.054688	3432.414063	74.646927
306.949890	1295.988159	4187.181641	3469.936768	75.192093
307.319702	1296.359497	4263.118652	3501.813232	74.338814
307.689484	1302.898193	4344.851563	3573.589111	74.645813
308.059265	1306.613403	4446.645996	3655.322266	74.798866
308.429016	1304.978638	4526.967285	3737.352783	75.492943
308.798737	1304.830078	4600.007324	3796.348877	75.611069
309.168396	1302.898315	4644.812012	3837.215576	75.834320
309.538055	1306.167603	4654.693848	3857.574219	76.194916
309.907684	1306.018921	4653.431152	3870.800049	76.619827
310.277313	1298.737183	4667.474121	3876.149658	76.509766
310.646851	1296.731079	4694.148926	3877.487305	75.962288
311.016388	1298.960083	4679.288574	3863.964111	75.880310
311.385895	1310.477173	4629.653809	3851.481445	76.555260
311.755371	1315.827026	4560.478027	3830.305420	77.496117
312.124817	1306.316284	4514.484863	3795.085938	77.576027
312.494232	1306.390503	4473.617676	3751.693115	77.206421
312.863617	1304.235718	4458.163086	3728.139404	76.853508
313.232971	1307.653564	4471.686523	3746.714844	77.087097
313.602295	1300.743530	4547.920898	3804.150635	77.094872
313.971619	1299.034546	4624.750000	3886.998291	77.816757
314.340820	1297.919922	4648.154785	3929.350830	78.544670
314.710083	1301.263550	4631.288574	3926.527344	78.836159
315.079285	1299.331665	4575.561523	3880.979736	78.799347
315.448486	1303.418457	4512.775879	3819.903076	78.410858
315.817596	1305.573120	4390.770508	3735.718018	78.767899
316.186707	1304.755859	4286.747559	3660.152344	78.987358
316.555786	1304.458618	4211.032227	3595.509033	78.823059
316.924866	1303.492676	4186.289551	3564.747314	78.439613
317.293884	1307.282104	4173.286621	3561.477783	78.652908
317.662872	1306.464722	4185.025879	3581.465576	79.032578
318.031830	1307.653687	4208.877441	3616.461914	79.580498
