Jaz Data File
++++++++++++++++++++++++++++++++++++
Date: Fri Jun 04 12:59:20 2021
User: jaz
Dark Spectrum Present: Yes
Reference Spectrum Present: Yes
Processed Spectrum Present: Yes
Spectrometers: JAZA3586
Integration Time (usec): 40000 (JAZA3586)
Spectra Averaged: 10 (JAZA3586)
Boxcar Smoothing: 1 (JAZA3586)
Correct for Electrical Dark: No (JAZA3586)
Strobe/Lamp Enabled: Yes (JAZA3586)
Correct for Detector Non-linearity: No (JAZA3586)
Correct for Stray Light: No (JAZA3586)
Number of Pixels in Processed Spectrum: 2048
>>>>>Begin Processed Spectral Data<<<<<
W	D	R	S	P
191.335022	0.000000	0.000000	0.000000	0.000000
191.713211	407.921967	415.277924	401.829132	-82.828575
192.091385	817.701477	830.407227	811.014160	-52.632210
192.469528	1229.635742	1241.598511	1225.028931	-38.509575
192.847641	1240.409668	1240.558228	1237.140259	-2200.739502
193.225739	1250.886353	1250.811890	1242.935913	10677.048828
193.603790	1263.666382	1262.774780	1248.360107	1716.716919
193.981842	1266.489868	1265.301147	1251.406372	1268.884766
194.359863	1266.712769	1263.963623	1252.595337	513.520691
194.737854	1268.793091	1260.842896	1247.171265	271.965973
195.115829	1266.415527	1272.508423	1247.394165	-312.189209
195.493774	1274.143066	1280.310181	1249.548950	-398.794556
195.871704	1276.074829	1281.796143	1261.511597	-254.543518
196.249603	1279.567139	1277.560913	1266.341187	659.245483
196.627457	1275.183228	1269.461914	1264.186401	192.208069
197.005310	1269.684937	1271.988281	1265.895386	-164.523819
197.383133	1279.270020	1271.393921	1259.431030	251.888535
197.760910	1276.892212	1271.839722	1260.397095	326.475006
198.138687	1277.040894	1268.570313	1248.062866	342.101990
198.516449	1272.434082	1266.712769	1254.304321	316.881104
198.894180	1270.353516	1263.740723	1251.629272	283.151825
199.271866	1270.056274	1268.941895	1255.567261	1300.186279
199.649536	1260.025513	1264.037964	1252.669556	-183.328262
200.027191	1261.585815	1260.694336	1254.750122	766.780762
200.404816	1258.613770	1258.242310	1251.852417	1820.210327
200.782410	1263.963501	1281.350342	1254.453003	-54.699402
201.159988	1261.140015	1299.480103	1259.431152	-4.457116
201.537537	1257.647949	1309.511108	1256.384766	-2.435609
201.915070	1256.756226	1310.625732	1259.728394	5.517348
202.292557	1259.802612	1308.768188	1261.437378	3.338602
202.670029	1265.301147	1311.517334	1267.678833	5.144703
203.047485	1256.533325	1309.585449	1265.598267	17.086859
203.424911	1254.081177	1310.254272	1261.511597	13.227720
203.802292	1250.663452	1301.263550	1266.489868	31.277441
204.179688	1256.236206	1294.130493	1270.576538	37.842991
204.557037	1249.400269	1291.604248	1277.783936	67.253532
204.934357	1253.189575	1290.489624	1276.297852	61.952404
205.311661	1253.932617	1288.111938	1271.913940	52.608776
205.688934	1258.762329	1280.384521	1268.050171	42.955135
206.066177	1257.424927	1284.322510	1263.443481	22.375820
206.443390	1257.573608	1282.390625	1254.824341	-11.078156
206.820587	1256.682007	1289.598022	1254.526978	-6.547054
207.197769	1252.000977	1294.353394	1263.294800	26.666302
207.574921	1245.610840	1299.182983	1264.037964	34.396839
207.952042	1242.490112	1302.080933	1259.728271	28.927542
208.329147	1247.394165	1294.204712	1253.412598	12.857001
208.706223	1258.093628	1299.554565	1268.718872	25.627119
209.083267	1270.130737	1292.867310	1275.406250	23.202763
209.460297	1260.397095	1292.198608	1272.805664	39.018803
209.837280	1258.019409	1284.471069	1268.050415	37.922028
210.214264	1249.697388	1289.152222	1260.991577	28.625616
210.591217	1249.920288	1295.022095	1262.254639	27.347797
210.968124	1248.434204	1305.647339	1260.174194	20.519747
211.345016	1252.446655	1300.371948	1264.186401	24.495930
211.721893	1252.595215	1300.520508	1262.031616	19.689816
212.098724	1252.743896	1292.718750	1263.443481	26.765789
212.475555	1242.118530	1301.412109	1257.573608	26.065350
212.852356	1247.765625	1303.492554	1264.409302	29.866489
213.229126	1236.322876	1301.486450	1259.356812	35.347870
213.605865	1246.502441	1302.303833	1257.722046	20.106318
213.982590	1252.520874	1306.464722	1249.846069	-4.958498
214.359283	1255.938843	1305.424561	1249.251587	-13.513507
214.735931	1249.771606	1290.786987	1253.338257	8.695885
215.112579	1244.942017	1284.099731	1256.384644	29.221897
215.489197	1248.062744	1286.031494	1254.453003	16.830311
215.865799	1251.183472	1297.176880	1254.081421	6.300793
216.242355	1248.137085	1302.972534	1249.103027	1.761529
216.618896	1245.982300	1295.765259	1250.811890	9.701291
216.995407	1246.205200	1295.244995	1249.623047	6.969537
217.371902	1242.638794	1288.632080	1257.053345	31.340553
217.748367	1238.106323	1294.056152	1254.527100	29.349110
218.124802	1239.220947	1290.563965	1252.297974	25.469921
218.501236	1246.131104	1295.467896	1253.932739	15.813018
218.877609	1253.486938	1299.108765	1255.195801	3.745712
219.253983	1254.378540	1301.709351	1258.093628	7.849195
219.630295	1252.372437	1299.851807	1253.041016	1.408147
220.006592	1252.818237	1304.755737	1260.397095	14.592264
220.382889	1256.161743	1310.179810	1263.369263	13.342794
220.759140	1256.756226	1311.220093	1262.997681	11.459809
221.135391	1258.762451	1308.693848	1257.202026	-3.125138
221.511581	1253.189819	1303.566895	1257.647827	8.849278
221.887772	1254.824341	1303.046875	1259.951172	10.631609
222.263931	1253.784180	1300.371948	1260.694336	14.832555
222.640060	1253.635620	1299.405884	1258.613770	10.876384
223.016159	1249.028809	1303.566895	1253.635498	8.446738
223.392212	1246.725464	1306.910522	1250.143433	5.679099
223.768265	1246.428223	1310.105469	1251.109253	7.351182
224.144302	1249.994751	1310.997192	1259.134033	14.981831
224.520294	1252.966797	1309.511230	1271.839844	33.377373
224.896286	1248.805786	1310.254272	1274.960449	42.563560
225.272217	1244.570557	1309.362671	1274.514526	46.215454
225.648148	1241.524170	1309.065308	1269.239136	41.034199
226.024048	1250.886353	1311.442993	1263.666382	21.104258
226.399902	1249.771729	1312.334595	1262.180298	19.833761
226.775772	1256.235962	1313.226318	1258.836670	4.563418
227.151581	1250.217651	1318.278931	1262.774780	18.449739
227.527374	1255.641602	1325.783569	1265.449585	13.983046
227.903137	1250.068970	1337.151733	1269.239136	22.013731
228.278870	1249.177368	1352.903931	1272.805664	22.779408
228.654572	1245.759399	1358.551025	1274.291626	25.296406
229.030273	1244.719116	1369.101929	1282.910645	30.704828
229.405930	1249.103149	1366.427124	1291.009766	35.718716
229.781555	1247.691284	1378.389648	1290.563965	32.802769
230.157181	1248.954468	1373.931641	1283.431030	27.586288
230.532761	1240.409668	1384.110962	1277.486694	25.801456
230.908325	1240.706787	1374.005859	1278.378296	28.260893
231.283859	1236.025635	1372.594238	1277.783813	30.576704
231.659332	1241.524048	1359.888306	1276.000610	29.127512
232.034821	1235.357056	1361.151489	1275.629150	32.014210
232.410263	1244.347656	1361.002930	1277.115112	28.089134
232.785690	1238.552124	1359.219727	1276.297852	31.280746
233.161087	1252.892456	1349.783203	1280.830200	28.834274
233.536469	1249.177368	1349.931763	1284.991089	35.545567
233.911804	1256.682007	1358.105103	1289.523682	32.380863
234.287140	1251.777954	1365.683960	1290.192383	33.724674
234.662430	1257.127686	1361.745972	1287.963379	29.474478
235.037704	1257.945068	1358.996826	1292.347168	34.044037
235.412933	1259.579712	1366.278320	1294.427734	32.660240
235.788162	1251.629272	1374.674683	1293.387451	33.937210
236.163345	1249.994751	1383.813843	1292.421509	31.704563
236.538513	1249.474609	1390.055298	1297.622681	34.249420
236.913635	1246.948364	1401.795044	1306.761963	38.627628
237.288742	1249.326050	1407.070679	1309.659790	38.247730
237.663834	1248.062744	1404.767212	1305.350220	36.557652
238.038879	1249.548828	1403.652710	1299.257324	32.256485
238.413910	1245.833862	1392.878784	1296.359497	34.360680
238.788910	1245.685059	1403.058228	1304.755737	37.535419
239.163879	1249.325806	1415.764038	1315.158203	39.553650
239.538834	1253.709839	1428.841309	1325.337769	40.899521
239.913757	1254.527222	1427.132324	1328.904175	43.090820
240.288651	1253.561157	1432.036255	1335.517212	45.920162
240.663528	1244.644897	1450.314819	1348.445801	50.469658
241.038361	1239.517944	1472.754272	1356.990601	50.366364
241.413177	1236.100098	1501.435059	1369.993530	50.462040
241.787979	1243.827515	1533.088257	1379.355591	46.853256
242.162735	1244.273315	1565.409668	1392.507202	46.159172
242.537476	1243.456055	1579.824585	1404.692871	47.934574
242.912170	1234.762695	1591.267090	1417.398804	51.229694
243.286865	1241.301270	1593.347656	1425.126343	52.216152
243.661514	1245.982422	1592.901855	1419.850586	50.117737
244.036148	1252.223755	1575.589233	1412.866211	49.678295
244.410751	1246.576782	1571.354004	1404.544312	48.638733
244.785339	1249.846069	1566.821411	1408.185059	49.953094
245.159882	1249.623169	1585.768555	1418.438843	50.221031
245.534378	1254.081299	1606.870605	1429.138550	49.620907
245.908890	1249.325928	1652.269653	1452.692505	50.470219
246.283356	1249.400269	1709.408569	1486.574585	51.558704
246.657791	1248.359985	1772.119751	1531.379028	54.036041
247.032196	1245.536499	1829.481567	1574.251587	56.292126
247.406586	1243.827515	1867.375977	1590.969727	55.672050
247.780960	1244.719116	1871.759888	1593.347534	55.599003
248.155289	1251.480835	1851.326538	1579.378540	54.663673
248.529602	1254.750000	1812.986328	1563.254883	55.264206
248.903870	1252.892456	1771.896851	1546.090820	56.492462
249.278122	1250.366211	1724.343262	1521.942505	57.297352
249.652344	1251.629272	1691.724243	1501.360718	56.744900
250.026550	1249.251587	1673.817383	1484.345337	55.372749
250.400711	1248.062744	1669.284790	1481.596313	55.441914
250.774857	1241.598511	1672.405640	1478.178223	54.915459
251.148987	1245.908081	1677.086548	1487.243164	55.971043
251.523071	1241.895630	1687.488892	1506.338989	59.346355
251.897125	1244.867798	1702.869751	1530.561646	62.378304
252.271164	1240.186768	1718.770508	1544.679199	63.623646
252.645187	1244.793457	1727.166870	1535.837280	60.335793
253.019165	1243.678955	1708.665405	1528.481323	61.249607
253.393112	1244.347656	1695.365234	1523.205688	61.828640
253.767044	1248.434204	1678.275513	1518.599121	62.852245
254.140930	1252.818237	1667.427368	1506.041992	61.075294
254.514801	1253.115479	1653.458374	1497.051270	60.931713
254.888657	1255.493164	1650.932129	1493.113281	60.090214
255.262466	1255.715942	1653.607056	1496.902710	60.616276
255.636276	1252.892456	1667.353149	1503.218384	60.397991
256.010010	1247.988403	1685.557251	1518.896118	61.912022
256.383759	1240.632446	1720.108032	1542.524536	62.962975
256.757446	1238.700684	1753.098511	1554.858765	61.461784
257.131134	1228.967041	1788.317871	1570.462280	61.052067
257.504791	1234.465454	1828.812866	1593.273071	60.370014
257.878418	1241.672729	1878.001343	1645.062134	63.393253
258.252014	1254.675659	1953.344238	1700.640625	63.830688
258.625580	1253.189697	2043.473267	1777.692505	66.368935
258.999115	1249.697388	2163.992432	1849.246094	65.574974
259.372650	1238.552002	2270.839844	1928.452759	66.832207
259.746124	1231.790405	2368.696533	1995.027954	67.132858
260.119598	1231.939087	2427.321289	2039.238159	67.534805
260.493042	1237.883301	2439.506836	2046.816895	67.320053
260.866425	1246.353882	2404.733154	2018.879272	66.690193
261.239838	1239.963867	2331.099365	1967.759155	66.700722
261.613159	1242.564331	2239.484131	1911.734741	67.123795
261.986511	1241.226929	2148.314453	1848.874634	66.988869
262.359802	1246.130981	2086.494629	1810.385742	67.144119
262.733063	1237.957642	2070.148193	1786.534546	65.919624
263.106293	1240.632446	2052.389893	1778.138306	66.215080
263.479523	1245.759399	2038.495117	1761.346069	65.038910
263.852692	1251.257813	2026.012329	1761.791870	65.896233
264.225861	1241.598389	2015.312866	1760.825806	67.108398
264.598969	1240.632446	2015.981445	1779.104370	69.448975
264.972076	1244.421875	2014.792480	1791.141479	70.968391
265.345154	1249.400269	2064.723877	1812.912109	69.115112
265.718201	1248.582886	2105.887939	1839.512573	68.928757
266.091217	1239.666504	2163.100830	1870.422363	68.305435
266.464203	1243.604614	2199.434814	1896.354004	68.291351
266.837158	1248.434326	2249.663330	1929.567261	68.029686
267.210114	1256.681885	2285.105957	1952.304077	67.639626
267.583038	1259.133911	2308.288086	1965.752930	67.351303
267.955902	1256.161743	2324.560547	1968.130493	66.638855
268.328766	1249.400269	2323.817627	1965.381226	66.639000
268.701569	1238.106323	2334.517090	1981.430664	67.796158
269.074371	1240.484009	2333.848389	1986.929077	68.270477
269.447144	1240.632446	2361.563232	2016.873047	69.249649
269.819885	1245.610840	2416.101563	2063.906738	69.910500
270.192596	1241.524048	2509.425781	2131.150635	70.165260
270.565277	1247.022583	2630.985107	2209.168701	69.521111
270.937927	1246.651001	2745.559814	2285.848877	69.330292
271.310577	1245.685059	2832.197021	2354.653320	69.899773
271.683136	1244.421875	2878.858643	2404.436279	70.973343
272.055725	1253.264038	2895.205811	2415.135498	70.762039
272.428284	1265.746948	2876.630127	2397.079834	70.230598
272.800812	1268.644653	2843.936768	2368.770752	69.836327
273.173279	1258.911011	2770.079834	2331.693604	70.990257
273.545776	1248.137207	2743.702393	2308.957031	70.931030
273.918152	1252.669556	2710.786133	2283.991455	70.729729
274.290558	1254.229980	2709.597412	2276.858398	70.265999
274.662964	1258.242188	2685.151611	2278.344482	71.490334
275.035278	1246.205200	2689.386719	2285.105713	71.986824
275.407593	1242.192871	2720.148193	2304.127197	71.851585
275.779907	1235.431274	2764.507080	2336.597656	72.015160
276.152161	1244.199097	2822.611572	2371.668701	71.430603
276.524384	1249.103149	2866.524658	2403.321533	71.361633
276.896606	1252.818237	2894.462646	2417.587646	70.951385
277.268799	1247.394043	2886.883545	2423.754639	71.751640
277.640930	1245.759399	2888.666748	2432.076660	72.208412
278.013031	1242.713013	2881.608154	2445.005615	73.359947
278.385162	1246.130859	2899.886719	2457.711182	73.262344
278.757233	1250.737671	2904.865234	2463.729736	73.331230
279.129272	1255.493042	2946.028564	2488.843994	72.956230
279.501282	1254.675659	2975.452393	2510.837646	72.999710
279.873230	1253.264038	3051.241455	2562.403564	72.811790
280.245178	1255.121582	3138.398438	2605.721924	71.715446
280.617126	1255.121582	3236.254883	2693.473633	72.602486
280.988983	1256.681885	3320.365479	2770.376953	73.349182
281.360870	1253.264038	3407.002686	2842.673828	73.797707
281.732697	1246.948242	3485.020508	2889.632813	73.397301
282.104492	1246.874023	3536.438232	2908.208252	72.561157
282.476288	1244.496216	3547.360596	2931.316650	73.248802
282.848053	1248.880127	3540.153076	2930.127686	73.376137
283.219757	1241.821289	3532.277100	2947.588867	74.472847
283.591461	1241.672729	3511.546631	2936.072021	74.647285
283.963135	1245.908081	3533.317383	2951.972656	74.585022
284.334747	1251.926636	3581.985596	2973.966064	73.905396
284.706360	1258.911011	3668.325439	3024.120850	73.263016
285.077942	1259.728394	3752.881836	3073.309326	72.742455
285.449524	1264.112183	3818.714111	3131.414063	73.095604
285.821014	1260.471313	3849.252686	3156.305420	73.232689
286.192535	1259.059692	3879.270752	3197.989258	73.998985
286.563995	1251.852173	3870.874756	3206.979736	74.651039
286.935425	1252.595337	3855.048096	3205.493408	75.040680
287.306824	1248.434204	3779.184814	3153.258789	75.267181
287.678223	1245.090698	3732.968750	3104.961914	74.757332
288.049561	1242.415771	3696.337891	3068.776611	74.426193
288.420898	1243.753296	3694.182861	3070.411377	74.544395
288.792145	1243.827515	3720.857422	3091.438721	74.589783
289.163452	1245.685059	3790.181885	3158.088623	75.158417
289.534668	1240.186646	3913.301514	3244.502686	74.980545
289.905914	1242.713013	4016.136475	3331.139648	75.301407
290.277039	1240.261108	4124.023926	3409.009033	75.205498
290.648193	1252.446655	4150.104492	3445.565674	75.685928
291.019318	1253.858398	4165.781738	3454.110596	75.560097
291.390381	1252.595215	4100.841797	3410.197510	75.751945
291.761475	1243.010132	4044.445313	3351.944336	75.280495
292.132507	1241.821411	3996.594482	3314.792969	75.250183
292.503510	1242.415771	3986.935547	3315.015625	75.517761
292.874481	1245.313599	4028.098877	3343.993896	75.416534
293.245422	1242.713013	4106.116699	3403.436279	75.459953
293.616364	1240.409546	4238.301270	3491.410400	75.086136
293.987213	1241.821411	4366.770996	3597.589111	75.385773
294.358093	1250.440552	4465.221680	3686.826904	75.787003
294.728943	1253.932739	4551.709961	3757.860107	75.927727
295.099731	1253.041138	4634.780762	3835.134766	76.354004
295.470490	1252.297974	4746.234375	3918.056641	76.296715
295.841248	1250.960571	4840.228027	3993.696533	76.414917
296.211975	1250.737671	4932.363281	4064.210205	76.419304
296.582642	1245.536499	5032.077637	4136.729980	76.354469
296.953308	1253.561157	5075.767578	4186.735840	76.740356
297.323883	1257.870728	5091.668457	4184.506348	76.337769
297.694519	1262.031738	4994.331543	4125.287109	76.715576
298.065063	1255.418823	4903.905762	4048.086670	76.543182
298.435608	1246.279663	4776.030273	3949.635498	76.587738
298.806122	1237.437500	4613.901855	3817.153564	76.402878
299.176575	1233.870972	4445.457520	3691.879150	76.535645
299.547028	1241.598511	4328.430176	3619.285400	77.026779
299.917450	1246.502319	4293.211426	3609.106201	77.546097
300.287872	1257.499146	4292.245605	3605.688232	77.376770
300.658234	1252.818115	4278.127441	3586.220703	77.129387
301.028564	1247.616943	4257.396973	3562.444092	76.910179
301.398865	1236.545898	4225.373047	3547.360596	77.315102
301.769135	1245.685059	4183.020508	3520.908936	77.458771
302.139374	1261.362915	4145.645996	3486.506592	77.147194
302.509583	1261.140015	4107.305664	3461.169189	77.298012
302.879791	1255.121582	4070.080078	3424.240967	77.056885
303.249939	1249.846069	4026.093018	3389.838867	77.082214
303.620087	1252.446655	3988.198486	3357.145508	76.933098
303.990173	1247.319702	3977.127197	3347.634766	76.940033
304.360260	1247.988525	3975.269531	3365.244873	77.632500
304.730286	1244.942017	3978.241943	3363.758545	77.518623
305.100281	1244.793579	3968.136719	3374.086670	78.186729
305.470276	1239.146606	3973.709717	3378.173096	78.221870
305.840179	1243.010254	3994.811523	3410.272217	78.757942
306.210144	1250.514771	4026.389893	3433.602783	78.645035
306.579987	1254.601440	4080.408203	3458.345703	77.986374
306.949890	1253.412598	4129.225098	3493.862549	77.906677
307.319702	1245.016479	4194.760254	3556.276611	78.354614
307.689484	1240.558228	4268.097168	3629.018799	78.891151
308.059265	1247.319702	4363.278320	3701.464111	78.760498
308.429016	1251.926392	4461.803711	3784.163330	78.888893
308.798737	1250.812012	4540.119141	3835.803711	78.587730
309.168396	1244.347656	4591.388184	3872.732178	78.528610
309.538055	1242.564453	4603.351074	3879.568115	78.463882
309.907684	1247.988525	4598.372559	3895.023193	79.006905
310.277313	1252.446655	4599.338867	3928.459229	79.955154
310.646851	1254.527100	4599.636230	3931.654297	80.031090
311.016388	1255.121582	4574.447266	3935.295166	80.744522
311.385895	1248.359985	4508.837891	3874.441406	80.542839
311.755371	1247.542603	4453.036621	3842.416748	80.950829
312.124817	1246.056519	4412.541504	3799.469727	80.638725
312.494232	1253.115356	4391.811035	3795.457031	80.999939
312.863617	1256.161743	4376.876465	3784.311768	81.011887
313.232971	1254.675659	4388.615723	3793.822998	81.020935
313.602295	1252.372314	4442.262695	3847.395264	81.351479
313.971619	1249.325928	4521.914551	3927.196289	81.827286
314.340820	1246.056641	4563.747559	3977.796143	82.338577
314.710083	1242.118530	4560.849609	3971.257568	82.234421
315.079285	1245.833740	4494.423340	3924.149414	82.445496
315.448486	1241.970093	4428.219238	3858.614502	82.123039
315.817596	1251.034912	4323.749512	3775.321289	82.151672
316.186707	1247.691284	4221.359863	3699.384033	82.446747
316.555786	1259.133911	4118.896973	3634.815186	83.072655
316.924866	1252.372314	4079.813721	3600.189697	83.036819
317.293884	1255.938843	4084.643555	3588.524170	82.461258
317.662872	1244.644897	4118.822754	3606.951172	82.190674
318.031830	1244.942017	4154.265137	3639.941650	82.321533
