Jaz Data File
++++++++++++++++++++++++++++++++++++
Date: Fri Jun 04 11:42:50 2021
User: jaz
Dark Spectrum Present: Yes
Reference Spectrum Present: Yes
Processed Spectrum Present: Yes
Spectrometers: JAZA3586
Integration Time (usec): 32700 (JAZA3586)
Spectra Averaged: 10 (JAZA3586)
Boxcar Smoothing: 1 (JAZA3586)
Correct for Electrical Dark: No (JAZA3586)
Strobe/Lamp Enabled: Yes (JAZA3586)
Correct for Detector Non-linearity: No (JAZA3586)
Correct for Stray Light: No (JAZA3586)
Number of Pixels in Processed Spectrum: 2048
>>>>>Begin Processed Spectral Data<<<<<
W	D	R	S	P
191.335022	0.000000	0.000000	0.000000	0.000000
191.713211	403.835297	413.123077	405.990082	23.200216
192.091385	811.311340	818.147278	809.528137	-26.085714
192.469528	1227.035034	1231.419067	1221.611084	-123.720558
192.847641	1239.889526	1226.886597	1234.614136	40.570786
193.225739	1250.737671	1243.307495	1249.994751	9.998686
193.603790	1255.344482	1251.777954	1255.121582	6.249786
193.981842	1258.465210	1273.177124	1253.189819	-35.857948
194.359863	1257.573608	1281.276123	1255.864624	-7.210140
194.737854	1264.186523	1280.681763	1262.923340	-7.657867
195.115829	1271.096680	1273.622925	1271.616699	20.584682
195.493774	1282.242065	1270.576538	1271.765381	89.808922
195.871704	1281.424683	1272.656982	1269.313477	138.134354
196.249603	1276.817993	1278.749878	1262.105957	-761.537964
196.627457	1269.982178	1276.297852	1264.855225	-81.178246
197.005310	1269.090454	1275.109009	1262.849121	-103.701523
197.383133	1273.994507	1267.158691	1263.146240	158.697479
197.760910	1276.520630	1259.802612	1267.084351	56.443768
198.138687	1275.480469	1264.335083	1273.251343	20.000439
198.516449	1270.353516	1266.044067	1282.242065	-275.871735
198.894180	1268.644653	1274.291626	1277.486694	156.580200
199.271866	1269.759155	1272.582642	1270.799438	36.843925
199.649536	1270.204956	1278.972778	1260.174194	-114.404251
200.027191	1267.084351	1277.783813	1257.870728	-86.112946
200.404816	1259.951294	1277.189453	1250.514771	-54.742062
200.782410	1252.892456	1284.619751	1252.000854	-2.810204
201.159988	1255.641724	1290.563843	1249.920288	-16.383415
201.537537	1262.403198	1298.142822	1258.836792	-9.978858
201.915070	1270.279419	1294.130493	1261.957397	-34.891602
202.292557	1269.536377	1303.121094	1262.848999	-19.911968
202.670029	1261.734619	1310.848633	1262.403198	1.361280
203.047485	1254.081421	1316.941406	1253.264038	-1.300323
203.424911	1256.979126	1313.151978	1255.864624	-1.984058
203.802292	1257.127563	1309.511230	1256.607544	-0.992713
204.179688	1262.031738	1306.316284	1260.397095	-3.691228
204.557037	1254.601440	1312.631958	1260.842896	10.755470
204.934357	1252.669556	1313.894897	1259.802612	11.650497
205.311661	1252.446655	1315.158081	1263.071899	16.943075
205.688934	1252.372437	1306.464722	1262.105957	17.994286
206.066177	1249.028809	1301.040649	1256.533325	14.428477
206.443390	1242.192871	1294.799316	1256.161743	26.553537
206.820587	1241.524292	1296.656860	1247.022583	9.972855
207.197769	1240.706909	1299.257324	1248.954346	14.086042
207.574921	1243.456177	1299.554565	1245.313599	3.311007
207.952042	1243.307495	1294.724854	1247.765503	8.670238
208.329147	1252.149536	1292.495850	1249.325928	-6.998430
208.706223	1254.006958	1297.994263	1256.458984	5.574396
209.083267	1254.675781	1302.898193	1259.059692	9.091024
209.460297	1252.520996	1306.539063	1258.019409	10.178841
209.837280	1252.669556	1309.659668	1257.202026	7.953083
210.214264	1252.075195	1309.956909	1256.682007	7.959010
210.591217	1252.892456	1299.406128	1261.362915	18.210686
210.968124	1249.400269	1293.907593	1258.687988	20.867846
211.345016	1248.508667	1294.427734	1259.505249	23.947746
211.721893	1246.428101	1297.548340	1251.852173	10.610420
212.098724	1249.177368	1288.706421	1246.873901	-5.827275
212.475555	1249.994629	1282.242065	1245.610840	-13.594225
212.852356	1252.000854	1298.068481	1250.291870	-3.709730
213.229126	1251.555054	1306.093262	1249.623169	-3.542259
213.605865	1254.972900	1307.505005	1252.520996	-4.667439
213.982590	1256.533325	1294.130493	1250.514771	-16.007999
214.359283	1253.115356	1291.009766	1257.053345	10.392003
214.735931	1248.434326	1292.941650	1261.437134	29.214983
215.112579	1247.542603	1299.182983	1266.043945	35.827278
215.489197	1249.400269	1301.114868	1256.756226	14.224140
215.865799	1251.034790	1305.944702	1254.601440	6.495458
216.242355	1249.474609	1304.830200	1248.285767	-2.147647
216.618896	1251.406494	1304.830078	1255.344482	7.371254
216.995407	1252.000854	1299.926147	1249.697388	-4.806370
217.371902	1251.109253	1292.941650	1253.189697	4.973285
217.748367	1253.412720	1290.415405	1247.394165	-16.265184
218.124802	1252.892578	1298.588745	1249.994751	-6.341510
218.501236	1253.858398	1297.994141	1244.942261	-20.201626
218.877609	1248.137085	1305.052979	1247.617065	-0.913663
219.253983	1253.041138	1299.554565	1244.199097	-19.009653
219.630295	1247.394043	1310.477051	1244.719116	-4.240328
220.006592	1252.223755	1309.956909	1250.068970	-3.732318
220.382889	1250.217651	1307.579224	1256.161743	10.362498
220.759140	1254.155640	1297.697021	1262.180298	18.429958
221.135391	1255.270142	1298.737305	1254.304199	-2.222235
221.511581	1247.914185	1306.613159	1257.276245	15.949274
221.887772	1245.387939	1320.433472	1260.099854	19.603985
222.263931	1238.106323	1321.845337	1270.799438	39.041676
222.640060	1241.449829	1319.467773	1258.390869	21.714287
223.016159	1244.124878	1310.551392	1251.183472	10.626169
223.392212	1244.793457	1315.604004	1250.589111	8.184733
223.768265	1248.805786	1321.251099	1255.195923	8.820635
224.144302	1245.313599	1332.767944	1261.065796	18.011909
224.520294	1248.359985	1323.405762	1257.127808	11.683299
224.896286	1244.199097	1318.873413	1259.951172	21.094368
225.272217	1251.480835	1311.666016	1259.059570	12.592361
225.648148	1245.982422	1317.981812	1258.911011	17.956526
226.024048	1250.291870	1318.055908	1258.985229	12.828869
226.399902	1244.644897	1325.932007	1259.951294	18.830042
226.775772	1248.582886	1336.928833	1258.911011	11.690548
227.151581	1242.861694	1350.600586	1262.328979	18.068949
227.527374	1243.010254	1354.761597	1267.975952	22.340401
227.903137	1242.861694	1355.801636	1277.709595	30.855249
228.278870	1246.576660	1353.572510	1287.740356	38.472237
228.654572	1247.319702	1362.786133	1287.517456	34.813370
229.030273	1255.195801	1368.953247	1285.957153	27.041178
229.405930	1261.808716	1381.584839	1276.595093	12.345012
229.781555	1265.598267	1386.042969	1281.053223	12.831578
230.157181	1262.774658	1395.628052	1283.430786	15.548062
230.532761	1251.555054	1394.662109	1283.579468	22.377943
230.908325	1249.846069	1391.467163	1280.978882	21.983175
231.283859	1251.926636	1384.631226	1279.641479	20.884615
231.659332	1256.682007	1373.114258	1287.666138	26.611296
232.034821	1258.168091	1369.399048	1285.957153	24.983210
232.410263	1250.960571	1366.575562	1286.774536	30.976921
232.785690	1249.846069	1373.337280	1284.322510	27.918133
233.161087	1251.629395	1368.061646	1284.842651	28.525822
233.536469	1248.657227	1372.594238	1283.208008	27.877695
233.911804	1247.245483	1374.749023	1284.991211	29.603670
234.287140	1248.434448	1386.340210	1282.093384	24.407200
234.662430	1251.629272	1390.649780	1278.378296	19.241062
235.037704	1253.709839	1399.937500	1280.681763	18.445158
235.412933	1249.846069	1402.241089	1286.105835	23.793274
235.788162	1255.864624	1402.538086	1288.260620	22.087156
236.163345	1255.344482	1399.417358	1274.217407	13.099568
236.538513	1254.304321	1399.120117	1279.567261	17.444878
236.913635	1245.239380	1395.776489	1275.406250	20.039492
237.288742	1241.598511	1400.903442	1288.632202	29.524317
237.663834	1244.719116	1399.863281	1285.140015	26.053766
238.038879	1246.353882	1402.612305	1293.610352	30.242510
238.413910	1254.898560	1407.813477	1287.071777	21.039948
238.788910	1248.359985	1420.742188	1297.622681	28.577599
239.163879	1251.257813	1428.544312	1301.189331	28.164310
239.538834	1239.815308	1431.144897	1311.963013	37.708599
239.913757	1241.078247	1442.141602	1311.740112	35.144081
240.288651	1245.016235	1468.147461	1321.102417	34.099297
240.663528	1253.561157	1496.233887	1339.083618	35.241894
241.038361	1254.378540	1520.456543	1343.467529	33.482285
241.413177	1253.561157	1545.496460	1350.451904	33.189117
241.787979	1254.527222	1566.152710	1354.092773	31.950388
242.162735	1257.722168	1600.777710	1374.303101	33.983109
242.537476	1257.202148	1630.647461	1390.649780	35.734184
242.912170	1258.688110	1650.709351	1406.179077	37.623207
243.286865	1260.545654	1653.012695	1404.767212	36.747433
243.661514	1262.774780	1638.746582	1406.773438	38.300388
244.036148	1251.777832	1623.514526	1392.210083	37.777344
244.410751	1249.251587	1607.911011	1385.894409	38.098209
244.785339	1253.115356	1612.369141	1379.132813	35.077557
245.159882	1255.047241	1625.297852	1382.699341	34.477215
245.534378	1255.790405	1655.539063	1394.959351	34.814114
245.908890	1250.663452	1697.594360	1416.655762	37.140484
246.283356	1260.991577	1767.513184	1451.875122	37.685173
246.657791	1257.424927	1842.112915	1491.255737	39.992409
247.032196	1252.818115	1903.412720	1529.744507	42.565125
247.406586	1240.335327	1938.632324	1544.604980	43.573101
247.780960	1243.233154	1949.257690	1545.942383	42.875172
248.155289	1241.969971	1936.626099	1532.270630	41.790558
248.529602	1250.217529	1903.338501	1518.673218	41.103516
248.903870	1247.542603	1852.589722	1493.336060	40.623856
249.278122	1246.205200	1793.147461	1473.497192	41.556854
249.652344	1245.610840	1748.194336	1455.961914	41.853954
250.026550	1248.434448	1710.448608	1441.175415	41.717545
250.400711	1255.121582	1689.346680	1432.853638	40.930859
250.774857	1254.304199	1687.637695	1434.562622	41.598083
251.148987	1256.756104	1713.792358	1448.902954	42.041927
251.523071	1252.520874	1746.634155	1464.432251	42.887207
251.897125	1252.520996	1767.735962	1462.426147	40.741276
252.271164	1246.502441	1771.005249	1465.249634	41.705627
252.645187	1243.456055	1771.896973	1457.224976	40.452759
253.019165	1240.483887	1770.782349	1462.203125	41.810272
253.393112	1241.747070	1759.562866	1462.723267	42.674671
253.767044	1245.462280	1737.123413	1460.865845	43.811386
254.140930	1251.406372	1713.569336	1449.869019	42.942135
254.514801	1256.310425	1698.188843	1442.810181	42.206123
254.888657	1261.437256	1698.040039	1441.026978	41.133434
255.262466	1258.539429	1707.922363	1447.937134	42.146172
255.636276	1260.025513	1728.727173	1448.531616	40.218784
256.010010	1254.229980	1742.918945	1457.522095	41.599491
256.383759	1249.846069	1763.500854	1463.243530	41.544918
256.757446	1243.307373	1792.701660	1483.899780	43.792301
257.131134	1243.901733	1840.106812	1500.469116	43.033413
257.504791	1247.691284	1883.499634	1526.549438	43.858837
257.878418	1250.588989	1950.817871	1552.926758	43.176991
258.252014	1253.338257	2027.721191	1599.440430	44.693932
258.625580	1243.158691	2142.444580	1649.223267	45.154114
258.999115	1249.474487	2266.381592	1709.036743	45.192158
259.372650	1252.000854	2403.841553	1769.370728	44.916790
259.746124	1259.876953	2521.091309	1821.977051	44.568165
260.119598	1248.434204	2597.771729	1866.187134	45.781944
260.493042	1244.421997	2592.793457	1870.273926	46.415394
260.866425	1246.279663	2543.605225	1851.846680	46.678108
261.239838	1253.264038	2430.665039	1802.063843	46.611122
261.613159	1251.629272	2332.957031	1748.120117	45.914925
261.986511	1254.973022	2226.852539	1718.993530	47.744652
262.359802	1250.589233	2173.651611	1690.238281	47.629398
262.733063	1249.103149	2146.754150	1669.582153	46.842148
263.106293	1249.400269	2132.933838	1649.668945	45.303165
263.479523	1250.812012	2116.661621	1638.523560	44.778164
263.852692	1245.239380	2106.482178	1642.164429	46.087475
264.225861	1234.242554	2094.445068	1635.254272	46.618290
264.598969	1241.747070	2104.475830	1643.873413	46.610981
264.972076	1248.211426	2117.553467	1651.823730	46.427330
265.345154	1255.567383	2170.976807	1674.560425	45.771111
265.718201	1253.709839	2216.524414	1692.616089	45.585751
266.091217	1256.310547	2273.663086	1721.296875	45.705524
266.464203	1259.876953	2317.427490	1748.417114	46.195442
266.837158	1257.796387	2356.882324	1770.856812	46.680645
267.210114	1258.093628	2389.649902	1785.791504	46.634701
267.583038	1253.115356	2409.785889	1789.655273	46.386581
267.955902	1249.920410	2427.544189	1801.023438	46.797886
268.328766	1249.697510	2438.838135	1808.676758	47.006992
268.701569	1252.149536	2445.376953	1820.119507	47.599472
269.074371	1249.548950	2456.447998	1821.679688	47.405022
269.447144	1252.446655	2480.299072	1833.791138	47.346447
269.819885	1259.802612	2541.747314	1859.054077	46.745499
270.192596	1248.880127	2640.570068	1917.679077	48.056606
270.565277	1247.765625	2764.432617	1978.904297	48.206936
270.937927	1238.106323	2888.889648	2042.581665	48.732944
271.310577	1252.372437	2975.675049	2081.962158	48.139526
271.683136	1249.400391	3046.857422	2106.630615	47.691277
272.055725	1249.623169	3069.371094	2115.844238	47.601158
272.428284	1247.914185	3061.197998	2108.191162	47.443039
272.800812	1250.960571	3005.768311	2081.293213	47.317585
273.173279	1246.353882	2929.681885	2049.417725	47.706913
273.545776	1248.582886	2884.951904	2027.944214	47.627480
273.918152	1251.332153	2853.521484	2016.575806	47.762375
274.290558	1251.257935	2862.661133	2016.575806	47.493877
274.662964	1248.062866	2850.846680	2011.003052	47.600941
275.035278	1246.576782	2868.605225	2016.798828	47.485115
275.407593	1256.904785	2897.137451	2017.838989	46.391846
275.779907	1253.338257	2950.858398	2042.210327	46.472031
276.152161	1248.360107	3002.647217	2067.621826	46.700550
276.524384	1243.233154	3033.705811	2095.485596	47.599300
276.896606	1240.929688	3057.482666	2100.612305	47.324940
277.268799	1238.031982	3052.281494	2104.178955	47.741337
277.640930	1232.162109	3060.083252	2111.980713	48.132198
278.013031	1235.357056	3071.599854	2117.627686	48.047604
278.385162	1238.700562	3082.745361	2122.085693	47.904755
278.757233	1244.867798	3093.742432	2120.153809	47.341557
279.129272	1247.468384	3123.166260	2144.673584	47.833141
279.501282	1245.610840	3163.364014	2166.370117	48.012398
279.873230	1245.982300	3227.264404	2199.955078	48.149265
280.245178	1246.353882	3304.984619	2231.013672	47.830811
280.617126	1246.651001	3428.178955	2287.781006	47.724808
280.988983	1247.988525	3537.923828	2347.000000	47.993122
281.360870	1247.319702	3639.346924	2402.058350	48.274475
281.732697	1248.359985	3707.408447	2438.243896	48.387985
282.104492	1249.771851	3750.801025	2444.485107	47.768864
282.476288	1256.533325	3773.463623	2447.234619	47.307682
282.848053	1254.750122	3762.615479	2433.636963	47.007584
283.219757	1248.359985	3767.890869	2438.318115	47.229355
283.591461	1244.198975	3740.399170	2430.441895	47.521946
283.963135	1245.536499	3750.578369	2449.537842	48.063122
284.334747	1250.588989	3796.869141	2469.896729	47.885841
284.706360	1248.731567	3884.397705	2517.153320	48.125282
285.077942	1249.177246	3991.096436	2563.741211	47.943207
285.449524	1255.195801	4070.377686	2610.848877	48.155079
285.821014	1256.087524	4108.866211	2619.765381	47.801739
286.192535	1262.626099	4144.902832	2634.551514	47.598667
286.563995	1257.944946	4133.386230	2629.796143	47.709240
286.935425	1256.533325	4118.748535	2625.189453	47.818069
287.306824	1252.595215	4045.262939	2582.539795	47.622730
287.678223	1253.932739	3963.827393	2544.274170	47.615929
288.049561	1256.087524	3918.205078	2503.407471	46.854427
288.420898	1254.304199	3909.585938	2498.280273	46.849117
288.792145	1247.468384	3958.848877	2513.958008	46.710140
289.163452	1246.353882	4039.244385	2569.165039	47.363514
289.534668	1240.855469	4150.327148	2631.802490	47.807545
289.905914	1243.753296	4259.923828	2689.758545	47.941761
290.277039	1253.041016	4366.548340	2737.163330	47.667217
290.648193	1265.301025	4415.661621	2755.813721	47.312447
291.019318	1267.232788	4430.894043	2754.327393	47.005497
291.390381	1254.601440	4363.798340	2712.420898	46.887333
291.761475	1250.143188	4294.177246	2676.012451	46.841434
292.132507	1249.177368	4250.933105	2660.111572	47.003628
292.503510	1253.635620	4249.818359	2670.662354	47.294403
292.874481	1252.298096	4307.997559	2693.473633	47.163525
293.245422	1250.440552	4376.950684	2723.120361	47.102989
293.616364	1252.446655	4513.444824	2778.773193	46.805504
293.987213	1243.976196	4630.322754	2836.729248	47.034554
294.358093	1240.261108	4755.076660	2898.623779	47.182072
294.728943	1234.093872	4861.255371	2955.687744	47.463940
295.099731	1245.387939	4955.545898	3018.102295	47.780025
295.470490	1248.880127	5068.337402	3063.575439	47.511864
295.841248	1256.979126	5146.132324	3105.482422	47.529709
296.211975	1253.858398	5275.864746	3150.361084	47.153149
296.582642	1249.994751	5404.037109	3210.397461	47.192650
296.953308	1240.409668	5463.851074	3245.617188	47.478046
297.323883	1239.443726	5462.067871	3243.165283	47.452049
297.694519	1244.347656	5341.622559	3189.667236	47.478374
298.065063	1244.124756	5235.221191	3132.751221	47.320992
298.435608	1242.267212	5069.228516	3051.687256	47.280853
298.806122	1239.592285	4894.691406	2975.526611	47.493496
299.176575	1247.839966	4724.018066	2881.756592	47.003246
299.547028	1256.458984	4617.319824	2829.595947	46.807560
299.917450	1256.384644	4581.357422	2802.401367	46.497128
300.287872	1255.047241	4569.691895	2805.596436	46.778748
300.658234	1250.291870	4560.775391	2802.921143	46.900379
301.028564	1255.047241	4532.540039	2786.500732	46.726376
301.398865	1245.833618	4508.763184	2760.420654	46.418011
301.769135	1243.753296	4455.116699	2725.869629	46.152248
302.139374	1241.152710	4408.380371	2709.597412	46.363728
302.509583	1255.716064	4365.284668	2696.742920	46.341698
302.879791	1254.675781	4320.108887	2681.659424	46.550800
303.249939	1257.202026	4291.873535	2661.597656	46.278343
303.620087	1254.898682	4251.898926	2640.124268	46.220402
303.990173	1251.332153	4240.604980	2637.226563	46.362259
304.360260	1250.886230	4215.861816	2636.334961	46.727154
304.730286	1247.616943	4220.840332	2633.139893	46.600029
305.100281	1259.579590	4220.394531	2623.257568	46.057522
305.470276	1260.768677	4239.639160	2614.489990	45.444111
305.840179	1255.567505	4236.518066	2629.499023	46.090382
306.210144	1252.743896	4277.235840	2637.672119	45.790443
306.579987	1252.372314	4310.746582	2656.767822	45.919674
306.949890	1253.784058	4358.151855	2676.829590	45.840111
307.319702	1246.502441	4417.073730	2723.343506	46.579651
307.689484	1240.929810	4517.084961	2771.342773	46.713688
308.059265	1247.468384	4625.046875	2810.649170	46.281109
308.429016	1258.019409	4713.318848	2849.806641	46.067997
308.798737	1257.796509	4784.649414	2887.180908	46.199387
309.168396	1256.310547	4848.326660	2911.700439	46.085258
309.538055	1248.285767	4871.583496	2924.035156	46.249287
309.907684	1251.257813	4874.332520	2911.329102	45.819405
310.277313	1247.171143	4882.951660	2923.217529	46.098667
310.646851	1255.567383	4880.425293	2922.028564	45.973145
311.016388	1257.202026	4880.500000	2927.898438	46.109829
311.385895	1255.864502	4805.454102	2901.892578	46.372349
311.755371	1248.285645	4764.810547	2868.084961	46.062500
312.124817	1246.799683	4690.879395	2844.456787	46.388508
312.494232	1246.056641	4670.148926	2821.868896	46.021313
312.863617	1249.623169	4635.226563	2802.995850	45.881706
313.232971	1255.047363	4654.173828	2805.447998	45.611736
313.602295	1255.493164	4725.801758	2838.884033	45.626804
313.971619	1253.858521	4811.546875	2894.239502	46.108055
314.340820	1245.536621	4840.599121	2907.539795	46.230160
314.710083	1247.765625	4831.237305	2898.772217	46.072823
315.079285	1245.907959	4756.637207	2851.664063	45.738533
315.448486	1251.183472	4674.310059	2812.729492	45.617538
315.817596	1249.103027	4553.642090	2754.253174	45.547962
316.186707	1255.641724	4463.290039	2705.287842	45.193424
316.555786	1253.635620	4389.210449	2658.774170	44.812790
316.924866	1259.208252	4335.341309	2629.573486	44.548309
317.293884	1252.149414	4330.956543	2632.470947	44.832996
317.662872	1253.338257	4342.548340	2643.690918	45.006741
318.031830	1248.657227	4387.204102	2664.569824	45.113636
