Jaz Data File
++++++++++++++++++++++++++++++++++++
Date: Fri Jun 04 11:43:01 2021
User: jaz
Dark Spectrum Present: Yes
Reference Spectrum Present: Yes
Processed Spectrum Present: Yes
Spectrometers: JAZA3586
Integration Time (usec): 32700 (JAZA3586)
Spectra Averaged: 10 (JAZA3586)
Boxcar Smoothing: 1 (JAZA3586)
Correct for Electrical Dark: No (JAZA3586)
Strobe/Lamp Enabled: Yes (JAZA3586)
Correct for Detector Non-linearity: No (JAZA3586)
Correct for Stray Light: No (JAZA3586)
Number of Pixels in Processed Spectrum: 2048
>>>>>Begin Processed Spectral Data<<<<<
W	D	R	S	P
191.335022	0.000000	0.000000	0.000000	0.000000
191.713211	403.835297	413.123077	402.423553	-15.200006
192.091385	811.311340	818.147278	811.014221	-4.346428
192.469528	1227.035034	1231.419067	1217.078613	-227.106415
192.847641	1239.889526	1226.886597	1221.165283	144.000183
193.225739	1250.737671	1243.307495	1234.762573	215.002960
193.603790	1255.344482	1251.777954	1241.524170	387.500427
193.981842	1258.465210	1273.177124	1255.121582	-22.727348
194.359863	1257.573608	1281.276123	1251.926636	-23.824362
194.737854	1264.186523	1280.681763	1253.189575	-66.667404
195.115829	1271.096680	1273.622925	1256.979126	-558.835449
195.493774	1282.242065	1270.576538	1255.715942	227.388977
195.871704	1281.424683	1272.656982	1257.424927	273.729218
196.249603	1276.817993	1278.749878	1256.013062	-1076.924072
196.627457	1269.982178	1276.297852	1259.802612	-161.179398
197.005310	1269.090454	1275.109009	1266.118286	-49.383419
197.383133	1273.994507	1267.158691	1263.369263	155.434921
197.760910	1276.520630	1259.802612	1262.403198	84.444412
198.138687	1275.480469	1264.335083	1257.350708	162.666061
198.516449	1270.353516	1266.044067	1258.836792	267.243591
198.894180	1268.644653	1274.291626	1255.121582	-239.474701
199.271866	1269.759155	1272.582642	1258.316528	-405.265900
199.649536	1270.204956	1278.972778	1260.025513	-116.100021
200.027191	1267.084351	1277.783813	1259.579712	-70.140327
200.404816	1259.951294	1277.189453	1257.350708	-15.086216
200.782410	1252.892456	1284.619751	1256.161865	10.304721
201.159988	1255.641724	1290.563843	1261.808838	17.659622
201.537537	1262.403198	1298.142822	1259.876953	-7.068471
201.915070	1270.279419	1294.130493	1256.533325	-57.633018
202.292557	1269.536377	1303.121094	1251.852173	-52.655510
202.670029	1261.734619	1310.848633	1260.397095	-2.723305
203.047485	1254.081421	1316.941406	1259.728271	8.983220
203.424911	1256.979126	1313.151978	1260.991455	7.142826
203.802292	1257.127563	1309.511230	1255.715942	-2.694773
204.179688	1262.031738	1306.316284	1255.418701	-14.933059
204.557037	1254.601440	1312.631958	1255.121460	0.896114
204.934357	1252.669556	1313.894897	1252.595337	-0.121222
205.311661	1252.446655	1315.158081	1255.418823	4.739436
205.688934	1252.372437	1306.464722	1256.979126	8.516352
206.066177	1249.028809	1301.040649	1256.533203	14.428243
206.443390	1242.192871	1294.799316	1257.127808	28.389936
206.820587	1241.524292	1296.656860	1254.452759	23.449781
207.197769	1240.706909	1299.257324	1259.431030	31.979485
207.574921	1243.456177	1299.554565	1256.310425	22.913755
207.952042	1243.307495	1294.724854	1260.322754	33.092442
208.329147	1252.149536	1292.495850	1255.270142	7.734549
208.706223	1254.006958	1297.994263	1262.403198	19.087872
209.083267	1254.675781	1302.898193	1258.167969	7.241835
209.460297	1252.520996	1306.539063	1259.505249	12.929476
209.837280	1252.669556	1309.659668	1247.245483	-9.517568
210.214264	1252.075195	1309.956909	1247.691284	-7.573914
210.591217	1252.892456	1299.406128	1247.245483	-12.140458
210.968124	1249.400269	1293.907593	1249.920410	1.168665
211.345016	1248.508667	1294.427734	1243.158813	-11.650615
211.721893	1246.428101	1297.548340	1245.685181	-1.453279
212.098724	1249.177368	1288.706421	1245.536499	-9.210616
212.475555	1249.994629	1282.242065	1254.006958	12.442320
212.852356	1252.000854	1298.068481	1251.183594	-1.774046
213.229126	1251.555054	1306.093262	1249.325928	-4.087274
213.605865	1254.972900	1307.505005	1245.536621	-17.962881
213.982590	1256.533325	1294.130493	1245.387939	-29.644217
214.359283	1253.115356	1291.009766	1245.833740	-19.215542
214.735931	1248.434326	1292.941650	1250.886230	5.508991
215.112579	1247.542603	1299.182983	1249.846069	4.460592
215.489197	1249.400269	1301.114868	1250.291992	1.724317
215.865799	1251.034790	1305.944702	1245.908081	-9.336582
216.242355	1249.474609	1304.830200	1247.617065	-3.355657
216.618896	1251.406494	1304.830078	1251.257813	-0.278307
216.995407	1252.000854	1299.926147	1249.920288	-4.341270
217.371902	1251.109253	1292.941650	1247.468384	-8.703467
217.748367	1253.412720	1290.415405	1244.496216	-24.096910
218.124802	1252.892578	1298.588745	1246.799683	-13.333493
218.501236	1253.858398	1297.994141	1248.359985	-12.457960
218.877609	1248.137085	1305.052979	1250.143188	3.524681
219.253983	1253.041138	1299.554565	1249.251587	-8.147219
219.630295	1247.394043	1310.477051	1249.177368	2.826950
220.006592	1252.223755	1309.956909	1248.434326	-6.563696
220.382889	1250.217651	1307.579224	1249.474487	-1.295578
220.759140	1254.155640	1297.697021	1248.508667	-12.969209
221.135391	1255.270142	1298.737305	1251.035034	-9.743234
221.511581	1247.914185	1306.613159	1249.846069	3.291173
221.887772	1245.387939	1320.433472	1252.818115	9.900890
222.263931	1238.106323	1321.845337	1247.096802	10.736308
222.640060	1241.449829	1319.467773	1251.406372	12.761863
223.016159	1244.124878	1310.551392	1249.103149	7.494404
223.392212	1244.793457	1315.604004	1256.533325	16.579266
223.768265	1248.805786	1321.251099	1259.505493	14.769358
224.144302	1245.313599	1332.767944	1263.443481	20.730682
224.520294	1248.359985	1323.405762	1261.511597	17.524786
224.896286	1244.199097	1318.873413	1249.474609	7.064695
225.272217	1251.480835	1311.666016	1252.372437	1.481430
225.648148	1245.982422	1317.981812	1252.595337	9.184682
226.024048	1250.291870	1318.055908	1265.226685	22.039440
226.399902	1244.644897	1325.932007	1261.362915	20.566628
226.775772	1248.582886	1336.928833	1267.901611	21.867132
227.151581	1242.861694	1350.600586	1264.780884	20.344732
227.527374	1243.010254	1354.761597	1272.434082	26.329731
227.903137	1242.861694	1355.801636	1274.663208	28.157898
228.278870	1246.576660	1353.572510	1283.802368	34.791729
228.654572	1247.319702	1362.786133	1277.189453	25.868774
229.030273	1255.195801	1368.953247	1271.691040	14.500360
229.405930	1261.808716	1381.584839	1273.177124	9.491381
229.781555	1265.598267	1386.042969	1280.978882	12.769856
230.157181	1262.774658	1395.628052	1288.854858	19.630812
230.532761	1251.555054	1394.662109	1276.594971	17.497332
230.908325	1249.846069	1391.467163	1277.263672	19.359829
231.283859	1251.926636	1384.631226	1271.765259	14.949463
231.659332	1256.682007	1373.114258	1281.127441	20.995415
232.034821	1258.168091	1369.399048	1273.994385	14.228317
232.410263	1250.960571	1366.575562	1276.000610	21.658125
232.785690	1249.846069	1373.337280	1272.434082	18.291191
233.161087	1251.629395	1368.061646	1273.994507	19.208693
233.536469	1248.657227	1372.594238	1275.926270	22.002340
233.911804	1247.245483	1374.749023	1282.613525	27.738871
234.287140	1248.434448	1386.340210	1281.870483	24.245567
234.662430	1251.629272	1390.649780	1280.384521	20.684177
235.037704	1253.709839	1399.937500	1273.177124	13.312998
235.412933	1249.846069	1402.241089	1278.526978	18.820108
235.788162	1255.864624	1402.538086	1283.207886	18.642269
236.163345	1255.344482	1399.417358	1301.560669	32.078339
236.538513	1254.304321	1399.120117	1303.343872	33.863400
236.913635	1245.239380	1395.776489	1306.761841	40.868633
237.288742	1241.598511	1400.903442	1292.941528	32.229397
237.663834	1244.719116	1399.863281	1295.616577	32.806557
238.038879	1246.353882	1402.612305	1286.848755	25.915321
238.413910	1254.898560	1407.813477	1288.557739	22.011705
238.788910	1248.359985	1420.742188	1287.517578	22.715567
239.163879	1251.257813	1428.544312	1296.210938	25.356203
239.538834	1239.815308	1431.144897	1301.932251	32.465935
239.913757	1241.078247	1442.141602	1304.532715	31.559439
240.288651	1245.016235	1468.147461	1311.814575	29.936796
240.663528	1253.561157	1496.233887	1324.148804	29.087589
241.038361	1254.378540	1520.456543	1335.814331	30.605984
241.413177	1253.561157	1545.496460	1351.566528	33.570923
241.787979	1254.527222	1566.152710	1367.467285	36.242241
242.162735	1257.722168	1600.777710	1386.414429	37.513535
242.537476	1257.202148	1630.647461	1396.668335	37.345814
242.912170	1258.688110	1650.709351	1401.423462	36.410107
243.286865	1260.545654	1653.012695	1409.448364	37.940182
243.661514	1262.774780	1638.746582	1404.172852	37.608692
244.036148	1251.777832	1623.514526	1397.336914	39.156502
244.410751	1249.251587	1607.911011	1387.454712	38.533249
244.785339	1253.115356	1612.369141	1390.426880	38.221317
245.159882	1255.047241	1625.297852	1396.965454	38.330311
245.534378	1255.790405	1655.539063	1401.275024	36.394024
245.908890	1250.663452	1697.594360	1419.330688	37.738995
246.283356	1260.991577	1767.513184	1449.869141	37.289143
246.657791	1257.424927	1842.112915	1491.329956	40.005104
247.032196	1252.818115	1903.412720	1518.227539	40.794899
247.406586	1240.335327	1938.632324	1539.181030	42.796360
247.780960	1243.233154	1949.257690	1549.509155	43.380363
248.155289	1241.969971	1936.626099	1548.914673	44.186569
248.529602	1250.217529	1903.338501	1539.181030	44.243488
248.903870	1247.542603	1852.589722	1510.351563	43.436115
249.278122	1246.205200	1793.147461	1482.339233	43.173485
249.652344	1245.610840	1748.194336	1450.017578	40.671200
250.026550	1248.434448	1710.448608	1432.110718	39.755550
250.400711	1255.121582	1689.346680	1428.321289	39.887077
250.774857	1254.304199	1687.637695	1424.383301	39.249008
251.148987	1256.756104	1713.792358	1437.163208	39.473259
251.523071	1252.520874	1746.634155	1448.531616	39.669189
251.897125	1252.520996	1767.735962	1470.822266	42.370911
252.271164	1246.502441	1771.005249	1471.713989	42.938103
252.645187	1243.456055	1771.896973	1484.419922	45.599018
253.019165	1240.483887	1770.782349	1476.915405	44.584614
253.393112	1241.747070	1759.562866	1472.902832	44.640537
253.767044	1245.462280	1737.123413	1452.692505	42.148994
254.140930	1251.406372	1713.569336	1442.735962	41.398727
254.514801	1256.310425	1698.188843	1434.414063	40.306026
254.888657	1261.437256	1698.040039	1423.417358	37.100109
255.262466	1258.539429	1707.922363	1427.652466	37.632278
255.636276	1260.025513	1728.727173	1443.553223	39.156616
256.010010	1254.229980	1742.918945	1456.704712	41.432228
256.383759	1249.846069	1763.500854	1456.779175	40.286415
256.757446	1243.307373	1792.701660	1472.977173	41.804184
257.131134	1243.901733	1840.106812	1491.850098	41.587765
257.504791	1247.691284	1883.499634	1526.400879	43.835472
257.878418	1250.588989	1950.817871	1549.286133	42.657074
258.252014	1253.338257	2027.721191	1596.393921	44.300518
258.625580	1243.158691	2142.444580	1643.947876	44.567493
258.999115	1249.474487	2266.381592	1710.894531	45.374847
259.372650	1252.000854	2403.841553	1779.252930	45.774738
259.746124	1259.876953	2521.091309	1835.648560	45.652161
260.119598	1248.434204	2597.771729	1874.657593	46.409691
260.493042	1244.421997	2592.793457	1874.583374	46.734997
260.866425	1246.279663	2543.605225	1848.651855	46.431847
261.239838	1253.264038	2430.665039	1792.553223	45.803356
261.613159	1251.629272	2332.957031	1746.039673	45.722530
261.986511	1254.973022	2226.852539	1708.442505	46.659023
262.359802	1250.589233	2173.651611	1687.414673	47.323502
262.733063	1249.103149	2146.754150	1667.501587	46.610367
263.106293	1249.400269	2132.933838	1656.950562	46.127312
263.479523	1250.812012	2116.661621	1647.216919	45.782188
263.852692	1245.239380	2106.482178	1644.393555	46.346302
264.225861	1234.242554	2094.445068	1644.319336	47.672119
264.598969	1241.747070	2104.475830	1634.957153	45.577488
264.972076	1248.211426	2117.553467	1638.969360	44.948700
265.345154	1255.567383	2170.976807	1653.235474	43.441555
265.718201	1253.709839	2216.524414	1682.287964	44.513050
266.091217	1256.310547	2273.663086	1711.340332	44.726852
266.464203	1259.876953	2317.427490	1734.002563	44.832432
266.837158	1257.796387	2356.882324	1757.333618	45.450245
267.210114	1258.093628	2389.649902	1764.764038	44.776421
267.583038	1253.115356	2409.785889	1784.454102	45.936913
267.955902	1249.920410	2427.544189	1791.067017	45.952419
268.328766	1249.697510	2438.838135	1809.419922	47.069489
268.701569	1252.149536	2445.376953	1814.026733	47.088860
269.074371	1249.548950	2456.447998	1823.908813	47.589718
269.447144	1252.446655	2480.299072	1833.642578	47.334347
269.819885	1259.802612	2541.747314	1863.735229	47.110661
270.192596	1248.880127	2640.570068	1916.192871	47.949814
270.565277	1247.765625	2764.432617	1980.984863	48.344116
270.937927	1238.106323	2888.889648	2039.238159	48.530407
271.310577	1252.372437	2975.675049	2086.271729	48.389603
271.683136	1249.400391	3046.857422	2109.305664	47.840103
272.055725	1249.623169	3069.371094	2105.441650	47.029507
272.428284	1247.914185	3061.197998	2094.147705	46.668564
272.800812	1250.960571	3005.768311	2076.909668	47.067783
273.173279	1246.353882	2929.681885	2054.767334	48.024715
273.545776	1248.582886	2884.951904	2030.544800	47.786404
273.918152	1251.332153	2853.521484	2009.962891	47.349632
274.290558	1251.257935	2862.661133	2002.383911	46.613163
274.662964	1248.062866	2850.846680	2001.640991	47.016830
275.035278	1246.576782	2868.605225	2009.219727	47.017853
275.407593	1256.904785	2897.137451	2025.863647	46.881084
275.779907	1253.338257	2950.858398	2053.281494	47.124226
276.152161	1248.360107	3002.647217	2080.327393	47.424809
276.524384	1243.233154	3033.705811	2102.989990	48.018429
276.896606	1240.929688	3057.482666	2118.147705	48.290253
277.268799	1238.031982	3052.281494	2118.221924	48.515373
277.640930	1232.162109	3060.083252	2121.268311	48.640293
278.013031	1235.357056	3071.599854	2117.330322	48.031406
278.385162	1238.700562	3082.745361	2121.491211	47.872517
278.757233	1244.867798	3093.742432	2136.277588	48.213642
279.129272	1247.468384	3123.166260	2146.828369	47.948021
279.501282	1245.610840	3163.364014	2165.775635	47.981400
279.873230	1245.982300	3227.264404	2188.214844	47.556709
280.245178	1246.353882	3304.984619	2237.403564	48.141205
280.617126	1246.651001	3428.178955	2295.731201	48.089241
280.988983	1247.988525	3537.923828	2353.092773	48.259190
281.360870	1247.319702	3639.346924	2395.371094	47.994911
281.732697	1248.359985	3707.408447	2430.516357	48.073734
282.104492	1249.771851	3750.801025	2445.971436	47.828293
282.476288	1256.533325	3773.463623	2463.209717	47.942387
282.848053	1254.750122	3762.615479	2458.602783	48.003086
283.219757	1248.359985	3767.890869	2462.763428	48.199589
283.591461	1244.198975	3740.399170	2442.479248	48.004173
283.963135	1245.536499	3750.578369	2460.906006	48.516930
284.334747	1250.588989	3796.869141	2478.813232	48.236019
284.706360	1248.731567	3884.397705	2525.177979	48.429749
285.077942	1249.177246	3991.096436	2561.883789	47.875465
285.449524	1255.195801	4070.377686	2602.007080	47.841003
285.821014	1256.087524	4108.866211	2617.536377	47.723602
286.192535	1262.626099	4144.902832	2633.288330	47.554844
286.563995	1257.944946	4133.386230	2637.300781	47.970230
286.935425	1256.533325	4118.748535	2637.449219	48.246403
287.306824	1252.595215	4045.262939	2592.421875	47.976585
287.678223	1253.932739	3963.827393	2549.846436	47.821556
288.049561	1256.087524	3918.205078	2519.605225	47.462879
288.420898	1254.304199	3909.585938	2523.840576	47.811741
288.792145	1247.468384	3958.848877	2548.137451	47.970734
289.163452	1246.353882	4039.244385	2593.387939	48.230820
289.534668	1240.855469	4150.327148	2638.118164	48.024620
289.905914	1243.753296	4259.923828	2684.631592	47.771782
290.277039	1253.041016	4366.548340	2730.847900	47.464378
290.648193	1265.301025	4415.661621	2758.414307	47.394997
291.019318	1267.232788	4430.894043	2758.488525	47.137024
291.390381	1254.601440	4363.798340	2724.160645	47.264915
291.761475	1250.143188	4294.177246	2698.526367	47.581043
292.132507	1249.177368	4250.933105	2685.820313	47.860085
292.503510	1253.635620	4249.818359	2681.733887	47.663925
292.874481	1252.298096	4307.997559	2703.133057	47.479637
293.245422	1250.440552	4376.950684	2736.569092	47.533142
293.616364	1252.446655	4513.444824	2807.305420	47.680458
293.987213	1243.976196	4630.322754	2866.004639	47.899067
294.358093	1240.261108	4755.076660	2911.552002	47.549892
294.728943	1234.093872	4861.255371	2951.081299	47.336945
295.099731	1245.387939	4955.545898	3007.774170	47.501648
295.470490	1248.880127	5068.337402	3072.492188	47.745319
295.841248	1256.979126	5146.132324	3116.553467	47.814373
296.211975	1253.858398	5275.864746	3171.612061	47.681519
296.582642	1249.994751	5404.037109	3231.202393	47.693485
296.953308	1240.409668	5463.851074	3261.592529	47.856300
297.323883	1239.443726	5462.067871	3253.196045	47.689594
297.694519	1244.347656	5341.622559	3197.617432	47.672413
298.065063	1244.124756	5235.221191	3144.490967	47.615143
298.435608	1242.267212	5069.228516	3056.590820	47.408985
298.806122	1239.592285	4894.691406	2969.656494	47.332893
299.176575	1247.839966	4724.018066	2881.905273	47.007523
299.547028	1256.458984	4617.319824	2833.608643	46.926956
299.917450	1256.384644	4581.357422	2810.128906	46.729534
300.287872	1255.047241	4569.691895	2814.809814	47.056705
300.658234	1250.291870	4560.775391	2814.141357	47.239307
301.028564	1255.047241	4532.540039	2800.915283	47.166180
301.398865	1245.833618	4508.763184	2777.361572	46.937202
301.769135	1243.753296	4455.116699	2750.686768	46.925037
302.139374	1241.152710	4408.380371	2728.173096	46.950222
302.509583	1255.716064	4365.284668	2703.355713	46.554356
302.879791	1254.675781	4320.108887	2672.222900	46.242962
303.249939	1257.202026	4291.873535	2642.501953	45.649094
303.620087	1254.898682	4251.898926	2634.403076	46.029507
303.990173	1251.332153	4240.604980	2631.282227	46.163403
304.360260	1250.886230	4215.861816	2638.118164	46.787296
304.730286	1247.616943	4220.840332	2628.830322	46.455082
305.100281	1259.579590	4220.394531	2628.012939	46.218132
305.470276	1260.768677	4239.639160	2633.734375	46.090141
305.840179	1255.567505	4236.518066	2639.530029	46.426884
306.210144	1252.743896	4277.235840	2651.567139	46.249859
306.579987	1252.372314	4310.746582	2658.403076	45.973141
306.949890	1253.784058	4358.151855	2690.947510	46.294884
307.319702	1246.502441	4417.073730	2733.151123	46.888985
307.689484	1240.929810	4517.084961	2775.578125	46.842968
308.059265	1247.468384	4625.046875	2827.961670	46.793678
308.429016	1258.019409	4713.318848	2856.196533	46.252930
308.798737	1257.796509	4784.649414	2892.679443	46.355289
309.168396	1256.310547	4848.326660	2900.406494	45.770840
309.538055	1248.285767	4871.583496	2917.942139	46.081123
309.907684	1251.257813	4874.332520	2925.520752	46.211109
310.277313	1247.171143	4882.951660	2931.762451	46.333691
310.646851	1255.567383	4880.425293	2927.527344	46.124840
311.016388	1257.202026	4880.500000	2915.638672	45.771469
311.385895	1255.864502	4805.454102	2883.985596	45.867870
311.755371	1248.285645	4764.810547	2856.122314	45.722317
312.124817	1246.799683	4690.879395	2827.961670	45.909565
312.494232	1246.056641	4670.148926	2808.271240	45.624195
312.863617	1249.623169	4635.226563	2804.184814	45.916824
313.232971	1255.047363	4654.173828	2807.528076	45.672932
313.602295	1255.493164	4725.801758	2849.360596	45.928696
313.971619	1253.858521	4811.546875	2882.871094	45.788509
314.340820	1245.536621	4840.599121	2913.186768	46.387238
314.710083	1247.765625	4831.237305	2899.589111	46.095619
315.079285	1245.907959	4756.637207	2867.490479	46.189335
315.448486	1251.183472	4674.310059	2829.819092	46.116779
315.817596	1249.103027	4553.642090	2771.045654	46.056126
316.186707	1255.641724	4463.290039	2734.117188	46.092190
316.555786	1253.635620	4389.210449	2677.201416	45.400475
316.924866	1259.208252	4335.341309	2656.693848	45.429947
317.293884	1252.149414	4330.956543	2639.752686	45.069508
317.662872	1253.338257	4342.548340	2651.418213	45.256878
318.031830	1248.657227	4387.204102	2663.009521	45.063923
