Jaz Data File
++++++++++++++++++++++++++++++++++++
Date: Fri Jun 04 12:02:21 2021
User: jaz
Dark Spectrum Present: Yes
Reference Spectrum Present: Yes
Processed Spectrum Present: Yes
Spectrometers: JAZA3586
Integration Time (usec): 23600 (JAZA3586)
Spectra Averaged: 10 (JAZA3586)
Boxcar Smoothing: 1 (JAZA3586)
Correct for Electrical Dark: No (JAZA3586)
Strobe/Lamp Enabled: Yes (JAZA3586)
Correct for Detector Non-linearity: No (JAZA3586)
Correct for Stray Light: No (JAZA3586)
Number of Pixels in Processed Spectrum: 2048
>>>>>Begin Processed Spectral Data<<<<<
W	D	R	S	P
191.335022	0.000000	0.000000	0.000000	0.000000
191.713211	332.876190	332.950470	337.111420	5701.725586
192.091385	669.244568	678.309509	675.560303	69.672096
192.469528	1008.436523	1024.337280	1024.188599	99.064941
192.847641	1020.176270	1034.219604	1025.154663	35.450222
193.225739	1031.247437	1039.792236	1035.185425	46.086372
193.603790	1047.445435	1044.027466	1041.649780	169.564285
193.981842	1053.241089	1053.909668	1049.674438	-533.467224
194.359863	1060.151245	1059.556763	1055.544556	774.907593
194.737854	1054.578613	1067.209961	1055.693115	8.823302
195.115829	1059.259644	1068.398804	1059.408203	1.625528
195.493774	1058.368042	1066.244019	1060.894165	32.073776
195.871704	1065.798218	1066.169800	1058.145020	-2059.625488
196.249603	1068.398804	1072.708374	1059.928345	-196.549973
196.627457	1071.816772	1069.959106	1059.259644	675.962646
197.005310	1070.330688	1067.209961	1055.395996	478.564453
197.383133	1065.798340	1068.770264	1056.659058	-307.520752
197.760910	1060.671509	1070.182007	1054.504272	-64.846619
198.138687	1054.355713	1072.931274	1056.213135	9.999277
198.516449	1057.996460	1068.993164	1052.423706	-50.676582
198.894180	1062.008789	1072.782715	1052.720947	-86.206665
199.271866	1062.751831	1063.940674	1049.600220	-1106.253174
199.649536	1057.699219	1058.516602	1049.154419	-1045.385254
200.027191	1056.956177	1058.070801	1040.163696	-1506.560059
200.404816	1063.494995	1068.324585	1046.033569	-361.550903
200.782410	1061.785889	1072.782715	1049.080078	-115.540703
201.159988	1061.265869	1075.829102	1054.504150	-46.430069
201.537537	1051.086304	1080.807251	1048.485718	-8.750010
201.915070	1049.971802	1089.203613	1047.222534	-7.007751
202.292557	1044.324829	1097.153931	1048.114136	7.172764
202.670029	1048.411377	1091.729858	1049.525879	2.572809
203.047485	1048.337036	1088.237549	1048.485596	0.372325
203.424911	1046.256714	1081.847656	1041.278198	-13.988153
203.802292	1046.330933	1088.088989	1040.535278	-13.879128
204.179688	1045.216431	1085.191162	1033.030640	-30.483734
204.557037	1043.656128	1093.364502	1035.631226	-16.143965
204.934357	1039.643677	1090.689575	1037.934692	-3.347937
205.311661	1042.318604	1090.912598	1043.804565	3.057913
205.688934	1040.312500	1084.893921	1047.594116	16.333298
206.066177	1036.745850	1083.259277	1039.717896	6.389651
206.443390	1029.167114	1081.550293	1040.906738	22.411057
206.820587	1028.498291	1078.132446	1043.210083	29.640461
207.197769	1038.083374	1074.120117	1049.525879	31.752329
207.574921	1039.495117	1074.120117	1047.073853	21.888044
207.952042	1038.603394	1069.587646	1043.433105	15.587634
208.329147	1033.922363	1065.723877	1043.878906	31.308393
208.706223	1047.073975	1073.897095	1048.931519	6.925160
209.083267	1058.516479	1079.321289	1046.553833	-57.499428
209.460297	1060.745605	1083.705200	1051.012085	-42.394131
209.837280	1047.519653	1081.030273	1045.885132	-4.877622
210.214264	1037.191772	1080.956055	1048.337036	25.466576
210.591217	1033.699463	1083.928101	1035.779907	4.141949
210.968124	1034.962524	1086.008667	1039.792236	9.461463
211.345016	1036.820190	1089.797974	1038.603394	3.365945
211.721893	1035.259766	1086.231567	1035.036987	-0.437062
212.098724	1032.584839	1081.699097	1028.349731	-8.622970
212.475555	1038.380493	1079.990112	1026.194824	-29.285702
212.852356	1040.758179	1084.151001	1034.070923	-15.410973
213.229126	1043.730225	1084.299683	1033.848022	-24.358723
213.605865	1037.117310	1084.225464	1027.235229	-20.977430
213.982590	1034.814087	1081.773315	1028.275391	-13.924199
214.359283	1029.092773	1084.671143	1021.365234	-13.903861
214.735931	1026.937866	1086.825928	1024.485962	-4.094145
215.112579	1023.668640	1087.048828	1020.473450	-5.041308
215.489197	1034.219604	1082.144897	1030.801636	-7.131868
215.865799	1041.947144	1073.302856	1023.445618	-59.005280
216.242355	1040.535278	1072.485474	1026.789307	-43.023121
216.618896	1030.950195	1077.612305	1020.176270	-23.089239
216.995407	1027.532227	1086.157227	1032.510620	8.491929
217.371902	1035.334106	1093.959106	1033.550903	-3.041711
217.748367	1042.169922	1095.593628	1032.733643	-17.663094
218.124802	1033.996704	1095.667969	1028.721313	-8.554049
218.501236	1036.151489	1094.627808	1022.925598	-22.617517
218.877609	1033.030762	1093.290283	1023.371399	-16.029604
219.253983	1046.628296	1088.906372	1020.473572	-61.863564
219.630295	1043.433105	1087.494751	1023.371399	-45.530998
220.006592	1043.730347	1089.723755	1030.281616	-29.240561
220.382889	1037.934692	1097.897095	1030.652954	-12.143840
220.759140	1038.900635	1103.023926	1031.173218	-12.050874
221.135391	1035.482788	1107.704956	1029.687134	-8.024758
221.511581	1040.089478	1107.036255	1032.139160	-11.875579
221.887772	1039.346436	1109.191040	1036.002808	-4.787239
222.263931	1051.680786	1100.348999	1041.203979	-21.527000
222.640060	1055.395874	1098.862915	1044.324829	-25.469976
223.016159	1053.018188	1099.754517	1046.182373	-14.626343
223.392212	1047.742676	1101.092163	1046.330933	-2.646217
223.768265	1044.399048	1101.537842	1042.169922	-3.901248
224.144302	1051.309204	1101.612061	1038.008911	-26.440434
224.520294	1045.810791	1106.887573	1038.008911	-12.773889
224.896286	1043.655884	1108.893921	1041.724121	-2.961099
225.272217	1040.535278	1103.321167	1036.448608	-6.508899
225.648148	1041.278320	1103.469727	1027.160767	-22.700169
226.024048	1036.671509	1106.218872	1021.959534	-21.153893
226.399902	1034.665405	1110.974243	1027.086548	-9.931821
226.775772	1038.231934	1114.243530	1027.160767	-14.565103
227.151581	1044.844849	1113.129028	1032.436401	-18.171774
227.527374	1038.306274	1121.450928	1023.891602	-17.336861
227.903137	1040.089478	1130.664429	1027.681030	-13.699646
228.278870	1036.894531	1151.915161	1025.005981	-10.336015
228.654572	1044.250366	1160.682861	1034.962646	-7.976914
229.030273	1037.934692	1170.713745	1029.166992	-6.603225
229.405930	1039.643677	1175.543335	1029.167114	-7.709043
229.781555	1034.293823	1182.304932	1025.526245	-5.923594
230.157181	1031.618896	1178.664063	1039.197876	5.154185
230.532761	1029.464233	1168.113159	1040.312378	7.824182
230.908325	1035.185425	1159.865356	1047.445557	9.833284
231.283859	1036.597168	1160.162720	1040.386719	3.066834
231.659332	1038.603394	1159.865479	1038.083374	-0.428839
232.034821	1030.504395	1153.475464	1031.098877	0.483433
232.410263	1031.916138	1146.936890	1032.882080	0.839798
232.785690	1026.863647	1142.850098	1037.711792	9.352942
233.161087	1033.179321	1145.450684	1041.649780	7.544630
233.536469	1028.126709	1156.744751	1040.089478	9.301003
233.911804	1029.464233	1166.403931	1037.043091	5.534449
234.287140	1028.275391	1162.688965	1032.064819	2.819231
234.662430	1041.501343	1156.373169	1034.070923	-6.468444
235.037704	1047.296997	1154.887085	1036.077148	-10.428329
235.412933	1051.160645	1174.354370	1039.866577	-9.167729
235.788162	1045.885132	1184.682495	1032.362061	-9.743032
236.163345	1046.330933	1188.769165	1033.328003	-9.128819
236.538513	1045.885132	1182.082031	1034.293823	-8.510699
236.913635	1047.965698	1184.236694	1038.380493	-7.033929
237.288742	1043.284546	1191.890015	1036.300171	-4.699945
237.663834	1052.498047	1201.326416	1030.727417	-14.628011
238.038879	1060.076904	1202.218140	1030.578735	-20.752718
238.413910	1062.083130	1205.115845	1038.306274	-16.623369
238.788910	1046.999634	1204.075562	1044.473511	-1.608218
239.163879	1038.603516	1205.115845	1045.587891	4.194509
239.538834	1041.649780	1206.304565	1038.231934	-2.075765
239.913757	1041.649780	1222.056763	1043.656128	1.112123
240.288651	1043.433105	1243.901733	1046.925415	1.742073
240.663528	1033.328003	1266.044067	1052.349487	8.173688
241.038361	1046.108032	1284.025269	1048.337036	0.936882
241.413177	1041.129761	1313.820679	1057.104858	5.858317
241.787979	1049.377319	1341.981445	1056.733276	2.513962
242.162735	1029.984375	1374.674683	1054.652954	7.156737
242.537476	1035.854248	1396.742554	1042.467163	1.832399
242.912170	1031.693237	1413.683594	1047.594116	4.162639
243.286865	1038.603394	1415.838379	1045.513550	1.831791
243.661514	1038.083374	1396.816895	1049.228760	3.106870
244.036148	1036.448730	1379.950195	1044.399048	2.314493
244.410751	1043.581787	1369.027710	1047.817017	1.301362
244.785339	1043.135864	1368.136108	1047.148315	1.234599
245.159882	1045.959351	1387.231812	1043.135864	-0.827341
245.534378	1038.677612	1406.624878	1046.182251	2.039596
245.908890	1037.414551	1460.345703	1047.594116	2.406909
246.283356	1037.488892	1513.174927	1053.761353	3.420841
246.657791	1040.609619	1593.050415	1048.634277	1.452582
247.032196	1042.318604	1644.616577	1054.950073	2.097213
247.406586	1040.089478	1684.591187	1056.064697	2.478693
247.780960	1042.392944	1695.588257	1066.467041	3.685589
248.155289	1040.906860	1689.718262	1060.225586	2.977556
248.529602	1040.163696	1656.876465	1055.024414	2.409666
248.903870	1043.358887	1600.926392	1047.742676	0.786235
249.278122	1033.996704	1551.515015	1049.674561	3.029430
249.652344	1038.380493	1511.094360	1049.377319	2.326318
250.026550	1032.956421	1490.438354	1045.067749	2.647389
250.400711	1045.364990	1467.255859	1038.306274	-1.673114
250.774857	1043.953247	1468.890625	1039.420776	-1.066621
251.148987	1049.005737	1479.515747	1044.176147	-1.121830
251.523071	1041.947144	1506.859375	1054.801392	2.764876
251.897125	1043.953247	1519.639282	1055.915894	2.514820
252.271164	1042.169922	1524.097290	1055.321655	2.728987
252.645187	1041.426880	1522.388306	1053.761108	2.564494
253.019165	1042.615723	1513.694946	1052.869507	2.176658
253.393112	1039.123657	1494.599243	1055.172974	3.523639
253.767044	1035.557129	1473.497192	1048.262817	2.901239
254.140930	1035.036743	1459.454102	1041.872803	1.610693
254.514801	1036.522949	1451.875122	1044.324707	1.878348
254.888657	1039.717896	1445.559570	1043.210083	0.860480
255.262466	1030.578735	1443.627563	1050.937622	4.928930
255.636276	1034.962524	1466.512695	1043.433105	1.962826
256.010010	1036.077148	1491.404175	1050.714722	3.214739
256.383759	1036.968750	1527.961060	1056.956177	4.070823
256.757446	1029.910034	1558.053711	1067.209961	7.062458
257.131134	1030.801758	1603.229858	1069.216187	6.710787
257.504791	1025.154663	1639.712402	1070.702148	7.411425
257.878418	1029.166992	1687.191895	1067.358521	5.803964
258.252014	1030.652954	1750.720703	1069.290527	5.365825
258.625580	1047.519775	1845.530884	1069.364746	2.737427
258.999115	1048.114136	1967.387329	1074.714600	2.893641
259.372650	1044.844849	2079.658936	1076.646484	3.073174
259.746124	1035.705688	2176.846924	1080.807373	3.952332
260.119598	1032.510620	2233.762695	1086.900269	4.527747
260.493042	1033.476440	2257.316650	1086.454468	4.328835
260.866425	1038.826294	2221.056885	1076.572144	3.192765
261.239838	1034.368164	2145.639648	1068.547485	3.075695
261.613159	1040.981079	2043.324829	1062.306030	2.127509
261.986511	1035.036987	1961.814819	1064.015015	3.126750
262.359802	1045.885132	1899.400391	1060.002563	1.654034
262.733063	1038.752075	1864.849609	1062.083008	2.824235
263.106293	1046.182251	1841.592896	1060.671265	1.821577
263.479523	1036.300049	1828.144165	1058.367920	2.786896
263.852692	1039.197876	1818.782227	1063.494751	3.116645
264.225861	1030.430054	1814.546875	1062.677368	4.112565
264.598969	1028.572510	1811.277344	1069.067505	5.173725
264.972076	1025.600464	1831.487915	1068.398804	5.310709
265.345154	1032.436279	1867.673340	1068.324585	4.296781
265.718201	1041.203979	1914.112305	1070.553589	3.362278
266.091217	1048.560059	1966.272827	1069.959106	2.331780
266.464203	1045.736450	2006.321899	1072.559814	2.792397
266.837158	1038.900635	2048.600342	1072.262573	3.304145
267.210114	1037.637451	2066.804443	1070.627930	3.205552
267.583038	1042.467163	2088.649414	1074.714478	3.082380
267.955902	1049.748901	2101.132568	1069.661987	1.893988
268.328766	1043.953247	2119.633545	1062.231812	1.699256
268.701569	1040.238159	2127.435547	1058.590820	1.688071
269.074371	1041.872803	2149.652100	1061.934570	1.810990
269.447144	1048.039917	2176.921143	1064.460815	1.454617
269.819885	1052.943848	2236.809326	1069.810547	1.424714
270.192596	1049.600220	2309.477295	1076.795044	2.158530
270.565277	1044.993530	2418.330811	1088.237671	3.148836
270.937927	1044.176147	2520.273926	1092.918823	3.302130
271.310577	1037.860352	2609.363037	1097.154053	3.773057
271.683136	1040.386597	2676.086670	1095.370728	3.361505
272.055725	1038.454956	2691.987305	1101.166382	3.792573
272.428284	1044.250488	2677.870117	1096.187988	3.179290
272.800812	1050.491821	2610.105957	1093.290283	2.744170
273.173279	1051.086304	2557.648438	1086.082886	2.322943
273.545776	1051.606445	2520.645752	1088.757813	2.528957
273.918152	1041.352661	2505.116455	1093.661743	3.573601
274.290558	1039.792358	2496.125488	1091.655640	3.561224
274.662964	1034.888306	2479.258545	1087.271606	3.626723
275.035278	1037.340210	2478.961426	1088.088989	3.520257
275.407593	1041.055298	2495.976807	1091.061157	3.437014
275.779907	1046.256470	2541.078857	1094.181885	3.206094
276.152161	1052.275146	2595.468506	1093.141602	2.648175
276.524384	1049.228882	2642.799072	1090.243774	2.573774
276.896606	1049.005737	2662.861084	1091.358276	2.624308
277.268799	1040.609497	2668.062012	1086.974487	2.848930
277.640930	1039.643677	2674.006104	1089.649414	3.059648
278.013031	1041.055420	2686.712158	1092.472900	3.124435
278.385162	1041.501343	2685.746094	1098.565796	3.470557
278.757233	1039.940918	2688.346680	1097.599854	3.497861
279.129272	1030.653076	2707.962646	1093.215942	3.729954
279.501282	1029.166992	2754.401611	1097.376953	3.953663
279.873230	1024.857422	2820.977295	1096.708130	4.000329
280.245178	1031.544678	2899.589600	1098.714233	3.595714
280.617126	1031.098755	3000.195313	1096.262329	3.309313
280.988983	1034.665405	3104.590820	1103.098145	3.306049
281.360870	1033.848022	3212.032227	1110.008423	3.496509
281.732697	1033.848022	3280.316406	1111.643066	3.462993
282.104492	1035.779907	3309.517334	1113.426392	3.414928
282.476288	1035.259888	3317.616211	1110.380005	3.291340
282.848053	1037.043091	3302.235596	1105.475952	3.021062
283.219757	1032.361938	3302.532959	1103.841309	3.148634
283.591461	1034.591064	3273.034912	1096.039429	2.745138
283.963135	1040.535278	3293.171143	1101.537720	2.708047
284.334747	1051.234863	3342.582275	1098.045532	2.042932
284.706360	1043.358887	3414.135986	1111.717285	2.883375
285.077942	1035.185425	3507.237061	1122.045410	3.513680
285.449524	1030.504395	3572.846436	1130.144409	3.919221
285.821014	1039.494995	3608.883545	1125.909058	3.363215
286.192535	1044.473267	3647.223389	1123.234253	3.026068
286.563995	1038.826416	3638.307373	1116.472656	2.986990
286.935425	1037.711792	3633.254639	1114.540894	2.960040
287.306824	1032.510620	3557.019775	1109.413940	3.046268
287.678223	1039.420776	3493.416748	1113.426270	3.015713
288.049561	1039.940918	3447.125977	1120.187866	3.333643
288.420898	1044.844849	3433.825439	1123.382935	3.287515
288.792145	1040.981079	3459.682861	1125.760620	3.505167
289.163452	1035.259766	3535.843750	1132.299194	3.880671
289.534668	1031.990601	3649.823975	1135.568481	3.956626
289.905914	1027.309448	3771.383545	1139.803711	4.099534
290.277039	1035.779907	3861.215088	1131.853394	3.400308
290.648193	1039.123535	3889.301758	1135.494141	3.381213
291.019318	1049.823120	3887.518311	1135.122681	3.005945
291.390381	1045.810791	3833.871826	1137.648926	3.293979
291.761475	1048.931519	3776.138672	1126.800781	2.855275
292.132507	1043.507446	3726.653076	1130.515991	3.242781
292.503510	1043.953125	3729.625000	1132.224854	3.286765
292.874481	1042.318481	3774.726807	1135.196899	3.399141
293.245422	1043.284546	3854.379150	1135.939941	3.296061
293.616364	1032.362183	3959.146240	1138.391968	3.622740
293.987213	1029.687134	4076.841553	1148.942871	3.913676
294.358093	1030.801636	4187.701172	1149.091431	3.747025
294.728943	1046.108032	4299.229004	1147.679810	3.122287
295.099731	1049.154419	4392.256348	1147.308228	2.936010
295.470490	1050.269043	4482.460449	1152.509521	2.978869
295.841248	1039.346313	4557.431641	1161.054321	3.459496
296.211975	1040.906860	4656.551758	1168.558960	3.530549
296.582642	1034.962769	4767.262695	1160.905762	3.374407
296.953308	1040.832520	4819.571777	1163.357788	3.242491
297.323883	1036.077271	4811.621582	1162.317505	3.343630
297.694519	1039.718018	4707.003418	1163.060425	3.363316
298.065063	1040.535278	4593.543457	1148.348511	3.034421
298.435608	1037.563232	4461.878906	1132.522095	2.773076
298.806122	1036.745972	4307.403320	1122.119629	2.610291
299.176575	1038.380493	4158.352051	1120.262085	2.624434
299.547028	1043.061523	4058.489014	1124.125854	2.688320
299.917450	1043.135864	4026.687500	1129.995728	2.911291
300.287872	1038.529175	4027.356201	1133.413696	3.174641
300.658234	1032.807739	4006.179932	1134.602539	3.423547
301.028564	1031.916138	3978.985107	1128.955566	3.292744
301.398865	1032.733521	3939.381592	1125.314697	3.185153
301.769135	1035.928589	3901.487061	1118.107300	2.867808
302.139374	1032.213379	3858.911865	1118.553101	3.054437
302.509583	1028.126831	3827.035889	1114.392212	3.082107
302.879791	1024.708862	3779.333740	1111.643066	3.155936
303.249939	1030.578735	3754.145264	1113.277710	3.036422
303.620087	1030.504395	3714.541748	1118.478882	3.277692
303.990173	1036.745850	3713.650146	1121.228027	3.155966
304.360260	1036.448608	3702.207275	1121.896851	3.205400
304.730286	1043.581665	3699.160889	1118.627563	2.825971
305.100281	1044.622070	3683.780273	1120.410767	2.871700
305.470276	1050.789185	3688.832764	1119.742065	2.613789
305.840179	1045.736572	3707.780273	1118.478882	2.732574
306.210144	1037.860474	3729.847900	1118.924683	3.011315
306.579987	1026.789429	3758.677490	1120.782227	3.440580
306.949890	1034.516724	3786.243408	1121.451050	3.159265
307.319702	1038.603394	3849.772461	1125.017578	3.073959
307.689484	1046.628052	3937.152588	1123.977295	2.675959
308.059265	1039.792358	4054.105469	1133.710938	3.115754
308.429016	1047.074097	4150.252930	1140.249634	3.002584
308.798737	1047.891235	4218.908691	1145.673584	3.083627
309.168396	1053.984009	4255.019531	1139.729370	2.678676
309.538055	1050.789063	4263.415527	1135.345581	2.632006
309.907684	1041.203979	4255.019531	1138.020508	3.012511
310.277313	1037.117432	4277.161621	1142.478638	3.251845
310.646851	1033.402344	4276.566895	1140.769653	3.310572
311.016388	1038.826416	4261.706543	1144.856323	3.289912
311.385895	1033.996704	4211.329590	1142.478638	3.414245
311.755371	1040.386719	4171.577637	1135.197021	3.027931
312.124817	1037.191772	4123.280762	1128.361084	2.954202
312.494232	1040.906860	4063.318359	1123.605591	2.736184
312.863617	1035.928589	4037.015625	1124.645996	2.956176
313.232971	1039.866577	4060.346436	1120.039185	2.654300
313.602295	1039.272217	4130.190918	1125.463257	2.788525
313.971619	1034.293945	4208.654785	1138.614868	3.286360
314.340820	1031.693359	4238.152344	1146.342407	3.575566
314.710083	1023.519958	4234.660156	1144.261841	3.760094
315.079285	1030.578735	4169.720215	1135.122681	3.330335
315.448486	1035.111206	4113.175781	1126.429321	2.966738
315.817596	1048.114258	4015.913330	1127.469482	2.673875
316.186707	1042.541626	3934.700439	1120.782349	2.705271
316.555786	1044.473511	3848.583740	1121.079468	2.731917
316.924866	1041.278320	3794.491455	1115.878296	2.709560
317.293884	1050.714844	3779.556396	1121.599609	2.597614
317.662872	1048.782837	3791.370361	1123.902954	2.739024
318.031830	1048.485596	3829.933594	1123.159790	2.684724
318.400757	1042.690063	3850.812744	1121.005127	2.788876
318.769684	1039.792114	3885.438232	1122.565430	2.908771
319.138550	1042.615723	3881.574219	1126.949341	2.970583
