Jaz Data File
++++++++++++++++++++++++++++++++++++
Date: Fri Jun 04 14:08:31 2021
User: jaz
Dark Spectrum Present: Yes
Reference Spectrum Present: Yes
Processed Spectrum Present: Yes
Spectrometers: JAZA3586
Integration Time (usec): 519000 (JAZA3586)
Spectra Averaged: 10 (JAZA3586)
Boxcar Smoothing: 1 (JAZA3586)
Correct for Electrical Dark: No (JAZA3586)
Strobe/Lamp Enabled: Yes (JAZA3586)
Correct for Detector Non-linearity: No (JAZA3586)
Correct for Stray Light: No (JAZA3586)
Number of Pixels in Processed Spectrum: 2048
>>>>>Begin Processed Spectral Data<<<<<
W	D	R	S	P
191.335022	0.000000	0.000000	0.000000	0.000000
191.713211	267.935577	267.712708	261.396942	2933.835449
192.091385	537.060059	543.450073	526.731995	-161.628174
192.469528	806.704590	817.404236	794.444641	-114.582748
192.847641	811.831543	822.010986	804.178406	-75.182274
193.225739	843.335876	843.707458	832.413391	-2939.454590
193.603790	875.583252	872.536865	856.413147	629.273499
193.981842	902.852356	903.000977	873.651367	-19648.007813
194.359863	902.703796	908.202148	875.286072	-498.653503
194.737854	915.038025	914.592224	896.165100	4233.488281
195.115829	908.276428	906.047363	896.536621	526.669617
195.493774	909.762512	901.737793	894.679016	187.962921
195.871704	903.000977	893.490234	883.385010	206.250641
196.249603	921.353699	915.558105	901.886414	335.898071
196.627457	928.115234	915.409485	901.217773	211.695190
197.005310	926.629211	920.090576	892.375671	523.863770
197.383133	919.570496	905.675842	883.905212	256.683502
197.760910	930.121399	927.075012	911.025635	626.833252
198.138687	927.669434	931.310242	922.691162	-136.735336
198.516449	922.096863	932.944885	914.963684	-65.755569
198.894180	908.870911	909.985413	881.304504	-2473.428223
199.271866	910.356934	900.325989	873.279846	369.627075
199.649536	907.161926	890.666687	878.406799	174.323792
200.027191	909.019531	902.778015	897.576843	183.331863
200.404816	893.936035	900.623230	885.019714	-133.334244
200.782410	896.982422	916.672668	895.347839	-8.301483
201.159988	890.072266	922.245361	895.422119	16.628345
201.537537	897.279602	942.455750	908.276428	24.342108
201.915070	892.524231	945.576416	904.561340	22.689186
202.292557	880.933044	940.746765	897.651184	27.950342
202.670029	883.607910	936.139954	908.053528	46.534679
203.047485	881.824707	928.189636	894.530457	27.403793
203.424911	885.465515	931.756104	895.645020	21.990440
203.802292	889.775085	937.031677	884.053711	-12.107040
204.179688	888.140442	941.935608	895.347839	13.397853
204.557037	902.926697	940.078064	895.124817	-21.000250
204.934357	898.617126	937.774658	907.236267	22.011450
205.311661	902.183594	935.842773	905.601563	10.154640
205.688934	904.115479	943.050110	904.487000	0.954217
206.066177	896.759521	925.366150	891.781250	-17.402510
206.443390	892.078430	922.691223	893.193054	3.641040
206.820587	870.233459	912.957520	886.802979	38.782642
207.197769	882.790710	927.520813	901.366272	41.528099
207.574921	892.078430	931.384705	901.440613	23.818544
207.952042	900.400391	933.390808	900.028809	-1.126333
208.329147	897.428223	944.907715	892.970032	-9.389719
208.706223	1063.123413	1120.187866	1058.219360	-8.593884
209.083267	1066.838501	1134.528198	1075.977661	13.501553
209.460297	1066.615601	1132.224854	1068.101685	2.265053
209.837280	889.700867	952.858093	900.400391	16.941092
210.214264	879.521301	940.969727	883.013489	5.683120
210.591217	868.598816	922.096741	877.589355	16.805399
210.968124	882.790710	940.523743	892.747131	17.245623
211.345016	894.753418	945.427734	910.208313	30.498478
211.721893	891.335449	951.594910	916.003906	40.937069
212.098724	887.991760	941.638367	902.703796	27.423983
212.475555	889.552185	947.879822	900.177490	18.216587
212.852356	897.799805	956.944763	906.938965	15.452137
213.229126	893.044434	957.390625	910.579834	27.251652
213.605865	879.149841	938.591980	895.570618	27.624807
213.982590	872.313965	927.520813	887.323059	27.187016
214.359283	868.970398	915.038025	877.217957	17.903154
214.735931	874.468750	921.130859	883.979492	20.382153
215.112579	886.431458	934.876770	896.388000	20.552128
215.489197	890.220886	951.223450	898.914307	14.250910
215.865799	887.471680	948.994385	899.954590	20.289925
216.242355	875.583252	942.752930	894.158997	27.654955
216.618896	880.933105	947.805603	903.000977	32.999920
216.995407	882.790588	955.458679	902.629395	27.300575
217.371902	880.561523	951.743469	895.347717	20.772394
217.748367	876.549133	942.901550	893.118652	24.971991
218.124802	879.744202	943.124451	896.908142	27.080898
218.501236	882.344727	942.678711	897.725525	25.492762
218.877609	876.400574	938.889343	888.214661	18.905935
219.253983	870.827881	939.112122	878.481140	11.207944
219.630295	878.703918	945.353516	878.332520	-0.557241
220.006592	884.871094	950.703308	878.852539	-9.142263
220.382889	887.917480	949.885986	878.926819	-14.508437
220.759140	884.053711	948.845703	882.419128	-2.522816
221.135391	889.032043	952.709473	890.592468	2.450515
221.511581	879.224121	948.325500	888.437683	13.333398
221.887772	879.818542	952.560852	890.815369	15.117511
222.263931	885.242615	970.987976	897.874084	14.731374
222.640060	899.211487	989.043457	906.047363	7.609625
223.016159	896.982422	999.445862	900.846191	3.770876
223.392212	888.214661	991.718445	899.731628	11.127098
223.768265	878.778259	994.096008	900.549011	18.878925
224.144302	876.400635	991.346924	897.799805	18.616669
224.520294	868.524597	983.842468	886.431458	15.528261
224.896286	879.224121	996.250977	900.846191	18.476162
225.272217	891.261047	1019.581970	918.976074	21.598213
225.648148	909.390930	1053.984009	939.112061	20.555016
226.024048	899.211487	1054.801392	924.177246	16.045874
226.399902	890.815247	1059.185303	914.592102	14.121784
226.775772	870.233459	1063.569214	895.793640	13.220617
227.151581	876.252014	1096.856812	907.533447	14.179852
227.527374	873.651428	1114.615112	910.728455	15.386977
227.903137	880.933105	1156.670532	929.527039	17.623264
228.278870	884.425293	1201.697998	942.381348	18.266953
228.654572	880.041504	1274.217407	962.591797	20.942501
229.030273	879.669922	1355.281616	975.520447	20.153105
229.405930	871.570984	1439.317993	975.371765	18.282928
229.781555	878.926941	1512.432007	980.350098	16.009842
230.157181	874.988831	1530.041626	973.588562	15.052181
230.532761	879.149719	1493.187500	976.337830	15.827708
230.908325	869.787598	1432.556641	964.152100	16.767891
231.283859	882.419128	1387.306274	975.520447	18.440025
231.659332	884.499573	1359.739868	969.799072	17.948709
232.034821	890.369568	1335.368530	962.740417	16.263149
232.410263	877.143616	1308.842407	945.353516	15.800345
232.785690	877.292236	1291.604248	935.248352	13.988520
233.161087	877.217957	1273.697266	943.867432	16.810329
233.536469	880.710205	1254.898682	938.294739	15.389179
233.911804	883.979492	1256.384644	948.697266	17.378325
234.287140	880.041504	1268.941895	942.678711	16.106234
234.662430	888.289063	1307.356323	956.721863	16.329790
235.037704	875.583313	1319.541992	958.282227	18.627615
235.412933	877.292236	1317.238647	964.597961	19.844627
235.788162	860.871399	1310.551392	951.074890	20.059484
236.163345	874.320129	1310.922974	958.579407	19.298838
236.538513	884.276672	1333.436646	972.474060	19.636074
236.913635	889.403564	1336.334473	983.768005	21.113876
237.288742	890.072266	1351.269409	984.511047	20.476879
237.663834	883.830872	1348.371582	968.907471	18.314133
238.038879	882.196228	1352.235229	972.176819	19.143217
238.413910	875.063171	1342.724487	961.179993	18.414356
238.788910	877.812317	1359.814087	968.461670	18.806850
239.163879	878.852600	1371.033813	966.678406	17.844202
239.538834	871.199402	1391.467163	980.424377	20.993992
239.913757	874.691589	1422.005493	1003.235291	23.486284
240.288651	875.583191	1468.816284	1018.170166	24.035574
240.663528	877.217957	1537.992188	1026.343506	22.568306
241.038361	864.883606	1596.245483	1024.708862	21.853102
241.413177	867.187012	1695.959595	1041.724121	21.059711
241.787979	864.586487	1799.686157	1068.250244	21.779898
242.162735	874.691589	1933.282593	1099.531616	21.239555
242.537476	870.010559	2040.575684	1117.141357	21.112091
242.912170	896.982422	2177.292725	1141.141235	19.070284
243.286865	902.703796	2232.945557	1140.026611	17.840578
243.661514	907.161926	2242.307373	1132.150513	16.851240
244.036148	900.920471	2153.664307	1118.776001	17.390268
244.410751	891.335449	2062.271973	1108.299316	18.529089
244.785339	886.802979	1965.901367	1097.376831	19.513870
245.159882	879.669922	1930.087524	1099.977417	20.973324
245.534378	892.449951	1957.653687	1116.249878	21.010057
245.908890	890.146545	2059.968750	1150.651978	22.268805
246.283356	883.310730	2216.747314	1173.611450	21.770868
246.657791	867.558594	2437.946533	1213.140503	22.006149
247.032196	875.508972	2692.582275	1277.486694	22.122263
247.406586	872.165344	2925.892578	1314.712280	21.548475
247.780960	873.279846	3091.513428	1334.179565	20.777781
248.155289	868.598877	3118.410889	1317.981567	19.974234
248.529602	866.444031	3021.817383	1286.551636	19.491177
248.903870	869.936218	2823.354492	1252.892456	19.604416
249.278122	867.261414	2606.167969	1197.908447	19.014652
249.652344	862.877502	2415.655762	1169.376099	19.738722
250.026550	862.877441	2276.263916	1140.992676	19.677225
250.400711	888.363281	2187.249268	1155.333008	20.553745
250.774857	894.456116	2120.154053	1151.246460	20.950539
251.148987	892.152771	2085.157471	1156.521851	22.159937
251.523071	865.923889	2081.813721	1137.946167	22.372278
251.897125	881.601746	2129.887451	1170.193481	23.119047
252.271164	876.920715	2195.273926	1176.286255	22.707535
252.645187	876.177673	2252.263916	1189.883667	22.796972
253.019165	858.419250	2267.793213	1166.478394	21.857870
253.393112	883.162109	2262.220703	1179.184204	21.465519
253.767044	885.539856	2178.407227	1166.998535	21.770111
254.140930	894.010315	2094.073975	1167.370117	22.778774
254.514801	878.926941	1991.015747	1150.131836	24.386980
254.888657	883.905212	1956.464844	1143.667480	24.218912
255.262466	876.326355	1927.041016	1122.713989	23.449530
255.636276	894.753357	1942.941772	1129.995728	22.442755
256.010010	910.282532	1968.873413	1143.370239	22.018679
256.383759	922.765442	2022.148438	1166.181274	22.141130
256.757446	900.474670	2070.965576	1166.701294	22.744867
257.131134	889.626465	2131.893555	1173.239990	22.830318
257.504791	877.515137	2215.632568	1189.735229	23.332787
257.878418	872.982727	2333.551270	1215.146851	23.426775
258.252014	875.508972	2494.342529	1268.941895	24.303482
258.625580	886.951660	2686.563477	1333.288086	24.801817
258.999115	879.967102	2915.416016	1396.891235	25.396074
259.372650	870.456360	3182.980225	1453.361328	25.206440
259.746124	864.809387	3481.454102	1507.899414	24.576895
260.119598	864.140625	3785.575439	1557.682251	23.739761
260.493042	865.775208	3991.319336	1581.682007	22.905029
260.866425	862.357239	4040.284912	1568.158813	22.209492
261.239838	869.341797	3866.639404	1522.759888	21.800241
261.613159	861.985840	3582.802734	1455.887573	21.828068
261.986511	864.289307	3283.214111	1392.209961	21.824600
262.359802	864.809387	3051.538330	1346.365356	22.021749
262.733063	865.924011	2896.989014	1322.514038	22.480326
263.106293	870.084961	2793.559326	1311.145874	22.930428
263.479523	884.573914	2749.126221	1317.461548	23.216707
263.852692	888.066162	2718.142090	1318.130249	23.499794
264.225861	871.125183	2683.591553	1312.037476	24.326647
264.598969	874.320129	2652.458740	1308.396606	24.411846
264.972076	871.645203	2641.833252	1309.288208	24.722967
265.345154	881.750305	2670.811279	1331.207642	25.122526
265.718201	867.112793	2715.021484	1335.962891	25.371929
266.091217	901.143372	2824.469482	1381.361938	24.968130
266.464203	903.372559	2931.019531	1402.389648	24.610649
266.837158	902.332214	3041.804688	1435.528687	24.921867
267.210114	871.199402	3120.639893	1422.599976	24.512789
267.583038	873.502747	3181.122314	1424.977539	23.897993
267.955902	870.604980	3213.147217	1421.931152	23.535378
268.328766	881.155945	3208.168701	1428.098267	23.504053
268.701569	877.292236	3200.143799	1428.766968	23.741282
269.074371	878.406738	3198.955078	1419.776367	23.329384
269.447144	868.598816	3230.385010	1424.308716	23.529222
269.819885	863.769226	3292.725342	1444.444946	23.906391
270.192596	864.958008	3395.708740	1491.032715	24.738695
270.565277	890.146667	3550.852783	1558.128052	25.105419
270.937927	892.747131	3735.123047	1598.845825	24.841846
271.310577	893.118652	3948.966553	1647.885742	24.699106
271.683136	870.307800	4153.447754	1674.857788	24.505505
272.055725	869.862000	4307.625977	1699.897583	24.144636
272.428284	869.638977	4343.291504	1687.934937	23.557219
272.800812	863.694824	4277.235840	1663.043335	23.416988
273.173279	868.301575	4140.890625	1641.718628	23.633186
273.545776	871.570862	4038.352783	1616.529907	23.524166
273.918152	886.654358	3939.901611	1600.926392	23.393848
274.290558	882.493408	3875.852783	1572.988647	23.067570
274.662964	883.756531	3799.544189	1566.524292	23.416239
275.035278	875.211731	3758.529053	1546.908325	23.295965
275.407593	880.190125	3768.559814	1563.626465	23.661665
275.779907	884.276672	3840.707764	1594.462036	24.021711
276.152161	878.852600	3895.394531	1615.489746	24.419920
276.524384	879.372620	3979.207764	1637.260376	24.449291
276.896606	874.914551	4027.950439	1632.727905	24.034403
277.268799	879.818542	4085.237549	1648.182983	23.970797
277.640930	872.611145	4090.439209	1639.192383	23.822939
278.013031	873.428467	4085.832764	1652.789673	24.260994
278.385162	866.889832	4072.904053	1643.501953	24.223602
278.757233	871.868164	4064.358643	1641.124146	24.095797
279.129272	867.855774	4085.906494	1633.693970	23.798201
279.501282	871.050842	4108.940430	1636.591797	23.643208
279.873230	869.490479	4170.463379	1670.250854	24.258314
280.245178	864.958008	4265.570801	1704.578735	24.690277
280.617126	872.016785	4425.172852	1770.262329	25.280216
280.988983	868.004395	4597.332520	1810.905884	25.283415
281.360870	893.193054	4778.631348	1873.022827	25.217999
281.732697	883.830872	4945.663574	1898.731812	24.986280
282.104492	887.100281	5074.355957	1931.053345	24.931677
282.476288	873.502747	5156.831543	1924.514771	24.537271
282.848053	878.555420	5181.648926	1919.610718	24.193182
283.219757	884.351013	5183.135254	1911.808960	23.901131
283.591461	881.601807	5136.992676	1914.558228	24.274069
283.963135	883.087891	5087.804688	1925.480835	24.791039
284.334747	880.710144	5098.132324	1947.994507	25.306559
284.706360	889.552063	5171.543457	1975.783691	25.367443
285.077942	902.034973	5327.802246	2018.730835	25.231689
285.449524	901.366272	5445.943848	2057.145264	25.432045
285.821014	886.654358	5542.166016	2062.272217	25.252174
286.192535	869.564758	5653.693848	2073.491943	25.165026
286.563995	868.598816	5747.167480	2074.160400	24.711376
286.935425	878.704041	5800.293457	2080.253418	24.413847
287.306824	877.440918	5718.857422	2048.228760	24.182755
287.678223	869.193298	5577.756348	2009.962891	24.227552
288.049561	881.601807	5462.587402	2000.526489	24.425415
288.420898	884.722473	5336.421387	1993.319214	24.902779
288.792145	893.861633	5298.526855	2002.458374	25.168694
289.163452	875.731934	5309.598145	2018.136108	25.765419
289.534668	876.846436	5454.265625	2055.956299	25.759274
289.905914	871.570862	5621.372559	2101.726807	25.899101
290.277039	885.837097	5826.002441	2163.843994	25.869717
290.648193	902.926697	6017.480469	2213.329346	25.621054
291.019318	907.459167	6136.587891	2218.679199	25.075304
291.390381	881.676086	6108.353027	2181.602295	24.870991
291.761475	862.580261	6010.421387	2135.683105	24.730808
292.132507	862.283142	5892.057129	2102.024170	24.648045
292.503510	872.016785	5806.534668	2083.002686	24.541117
292.874481	909.465332	5798.955566	2135.906006	25.083200
293.245422	912.734680	5834.175293	2175.732422	25.663174
293.616364	917.787292	5989.542480	2239.187012	26.054089
293.987213	881.676086	6126.482422	2272.845947	26.524715
294.358093	875.806152	6340.845703	2346.405762	26.909222
294.728943	862.357361	6537.450684	2396.782959	27.037891
295.099731	860.202576	6759.987793	2449.166260	26.932568
295.470490	860.128235	6917.806152	2491.221436	26.926048
295.841248	871.422180	7023.242188	2546.651367	27.231441
296.211975	869.787598	7114.931152	2590.564209	27.553837
296.582642	870.530579	7278.471191	2648.669189	27.748989
296.953308	864.363525	7447.732910	2685.300293	27.659649
297.323883	864.214905	7554.729004	2690.575928	27.297770
297.694519	867.632813	7561.192871	2676.606689	27.025587
298.065063	874.245789	7480.798340	2639.901367	26.725822
298.435608	874.394348	7270.520996	2577.784180	26.631586
298.806122	871.347900	6948.642090	2473.017578	26.354980
299.176575	877.366516	6616.136719	2394.182373	26.431028
299.547028	875.657532	6392.040527	2337.489502	26.499830
299.917450	867.484314	6259.707031	2304.350342	26.647007
300.287872	857.899231	6173.070313	2274.554932	26.653061
300.658234	855.149963	6097.652832	2249.738037	26.601570
301.028564	862.728821	6033.306152	2244.388184	26.721571
301.398865	858.345032	5968.812012	2215.707275	26.560436
301.769135	867.558594	5911.450684	2198.691650	26.390989
302.139374	873.874329	5877.642090	2178.035400	26.063583
302.509583	869.193176	5839.673828	2162.952148	26.028852
302.879791	869.861877	5772.207031	2130.779053	25.720694
303.249939	863.471863	5682.449219	2093.702148	25.528864
303.620087	875.508972	5592.691406	2053.653076	24.975586
303.990173	871.719482	5519.429199	2043.622070	25.214624
304.360260	880.561523	5475.664551	2054.916016	25.556652
304.730286	886.208496	5456.123047	2076.760986	26.051964
305.100281	897.354004	5459.986816	2094.742188	26.243361
305.470276	886.282776	5458.724121	2095.039307	26.435694
305.840179	874.022888	5460.581543	2102.692627	26.788488
306.210144	860.797058	5468.680176	2099.126221	26.874142
306.579987	881.750488	5496.767090	2130.259033	27.053175
306.949890	890.815369	5536.221191	2160.500244	27.332054
307.319702	900.326111	5617.062500	2207.905273	27.722116
307.689484	877.812317	5704.368652	2227.521240	27.964224
308.059265	875.508972	5839.971191	2280.127686	28.293470
308.429016	860.054016	5948.229980	2307.099609	28.439381
308.798737	863.917725	6082.568848	2353.241455	28.538479
309.168396	860.202576	6199.150391	2375.532471	28.382555
309.538055	872.462585	6285.712891	2391.061523	28.053364
309.907684	875.434631	6297.155762	2372.262939	27.607992
310.277313	876.846375	6322.566895	2353.315674	27.112467
310.646851	873.131287	6336.981934	2347.966064	26.992588
311.016388	887.323059	6370.492676	2354.653320	26.760624
311.385895	913.700500	6334.529785	2353.687256	26.563959
311.755371	910.505554	6279.322754	2316.164551	26.181910
312.124817	894.456238	6213.639160	2262.443604	25.717997
312.494232	875.880432	6138.296387	2208.722656	25.327574
312.863617	873.279846	6075.064453	2188.215088	25.278542
313.232971	876.697754	6022.087402	2181.007568	25.349096
313.602295	861.911560	6013.021973	2175.063477	25.492598
313.971619	867.409973	6070.234863	2190.444092	25.429152
314.340820	864.289246	6100.625000	2193.713379	25.388441
314.710083	878.852600	6168.463379	2215.261475	25.264788
315.079285	885.539856	6170.543457	2200.623779	24.883314
315.448486	904.041199	6187.484375	2196.017090	24.453293
315.817596	912.065918	6070.086426	2140.289795	23.811924
316.186707	907.904968	5901.642090	2084.711426	23.565645
316.555786	890.072266	5695.525879	2036.488892	23.856575
316.924866	878.481018	5517.720215	2003.275757	24.245239
317.293884	881.304504	5430.042969	2000.675171	24.608376
317.662872	889.552185	5398.835449	2010.780273	24.864883
318.031830	875.583252	5429.448242	2033.516968	25.427492
318.400757	878.852539	5474.996094	2059.820313	25.694754
318.769684	867.112793	5520.470215	2074.680664	25.950464
319.138550	864.586426	5529.832031	2079.287598	26.037239
319.507416	859.905334	5513.335938	2083.596924	26.296549
319.876190	855.521484	5490.599609	2078.841553	26.392653
320.244995	887.025879	5484.209473	2090.284180	26.173815
320.613770	887.694580	5437.770508	2074.531982	26.083902
320.982483	898.171204	5387.839355	2064.501221	25.978092
321.351166	876.623474	5320.148926	2048.302979	26.368240
321.719818	873.651367	5312.198730	2068.513428	26.920115
