Jaz Data File
++++++++++++++++++++++++++++++++++++
Date: Fri Jun 04 13:31:12 2021
User: jaz
Dark Spectrum Present: Yes
Reference Spectrum Present: Yes
Processed Spectrum Present: Yes
Spectrometers: JAZA3586
Integration Time (usec): 31100 (JAZA3586)
Spectra Averaged: 10 (JAZA3586)
Boxcar Smoothing: 1 (JAZA3586)
Correct for Electrical Dark: No (JAZA3586)
Strobe/Lamp Enabled: Yes (JAZA3586)
Correct for Detector Non-linearity: No (JAZA3586)
Correct for Stray Light: No (JAZA3586)
Number of Pixels in Processed Spectrum: 2048
>>>>>Begin Processed Spectral Data<<<<<
W	D	R	S	P
191.335022	0.000000	0.000000	0.000000	0.000000
191.713211	311.774200	307.316071	299.662872	271.668365
192.091385	620.056213	618.050110	606.978943	651.874146
192.469528	933.390808	929.452820	920.685059	322.645691
192.847641	935.025452	940.375244	935.174011	2.776922
193.225739	947.582703	947.211121	949.514465	-519.875183
193.603790	957.464844	953.749695	955.904480	42.000034
193.981842	966.529785	961.923035	959.099548	161.290192
194.359863	966.455505	971.953857	955.532959	-198.651276
194.737854	968.461670	984.139465	963.409119	-32.227436
195.115829	970.542175	980.944519	963.780579	-65.000702
195.493774	972.176819	973.142761	963.409119	-907.683533
195.871704	968.758850	965.712463	955.458740	436.586395
196.249603	973.216980	963.037598	960.882813	121.168129
196.627457	972.325439	967.495667	964.746582	156.919540
197.005310	966.158264	966.306885	960.511230	-3799.630371
197.383133	957.464905	966.232605	958.133606	7.626871
197.760910	956.424622	969.724792	963.111877	50.279472
198.138687	960.734192	971.879639	967.792969	63.333279
198.516449	961.180115	970.244934	964.597900	37.703846
198.894180	967.198547	966.529785	951.223389	2388.765137
199.271866	970.616516	967.198425	948.325623	652.144592
199.649536	968.015869	978.789612	948.920105	-177.243546
200.027191	971.879578	978.046631	952.486572	-314.461456
200.404816	968.535950	975.223145	950.406067	-271.113434
200.782410	970.170654	979.235535	944.759094	-280.329803
201.159988	960.882813	990.009460	942.529968	-63.010490
201.537537	951.966492	1006.504700	940.672424	-20.708542
201.915070	951.594910	1007.990723	943.421631	-14.492705
202.292557	946.988098	1005.612976	954.121277	12.167495
202.670029	953.675354	1004.201355	955.904480	4.411839
203.047485	945.947937	1003.755432	961.031311	26.092419
203.424911	943.867493	1004.721375	957.687744	22.710550
203.802292	943.941833	1007.024719	961.105652	27.208359
204.179688	946.765320	997.291016	962.963196	32.058689
204.557037	951.817871	996.770996	960.139648	18.512121
204.934357	948.102722	993.724609	961.402832	29.152914
205.311661	942.678528	1000.560486	958.207825	26.829252
205.688934	943.941711	998.554199	952.040710	14.829940
206.066177	946.022278	993.501648	949.960266	8.294104
206.443390	951.817871	996.770996	946.616638	-11.570348
206.820587	946.913818	997.811218	950.257507	6.569469
207.197769	948.919983	994.319031	948.771484	-0.327096
207.574921	948.771484	986.665833	951.297791	6.666709
207.952042	953.675476	985.625671	950.257507	-10.697803
208.329147	946.988220	992.907227	949.514465	5.501524
208.706223	955.532959	1006.281738	957.167664	3.221170
209.083267	950.034607	1007.099121	953.972656	6.901048
209.460297	951.149109	995.879395	945.204895	-13.289014
209.837280	939.334961	983.916687	933.167908	-13.833141
210.214264	938.889160	978.121033	932.127625	-17.234802
210.591217	942.455750	986.740051	936.734375	-12.919645
210.968124	953.155273	987.780334	934.951172	-52.574928
211.345016	954.492737	991.124023	938.889160	-42.596310
211.721893	946.988220	993.204529	935.248291	-25.402136
212.098724	941.118225	995.582214	935.099670	-11.050521
212.475555	946.542297	1003.086731	932.350525	-25.098444
212.852356	949.217285	999.743103	942.529968	-13.235445
213.229126	945.353516	996.399597	941.192566	-8.151360
213.605865	937.923157	990.752441	938.369141	0.844198
213.982590	937.551697	988.820618	926.926453	-20.724533
214.359283	946.319519	982.356262	927.297913	-52.783920
214.735931	947.879822	981.910461	933.762268	-41.484833
215.112579	953.824036	980.795898	939.112061	-54.545639
215.489197	948.845703	988.300537	937.477356	-28.813572
215.865799	949.068665	984.436707	932.276184	-47.479248
216.242355	941.118225	989.935120	927.223633	-28.462671
216.618896	940.523865	992.907227	932.796326	-14.751896
216.995407	947.359680	995.582214	937.848938	-19.722610
217.371902	953.452576	992.758606	942.901550	-26.843273
217.748367	952.338074	991.123962	946.096497	-16.092392
218.124802	945.873718	996.622375	942.084167	-7.467293
218.501236	947.582581	991.792725	941.786926	-13.109331
218.877609	948.845703	987.706055	942.232727	-17.017282
219.253983	945.279236	992.684326	941.341125	-8.307358
219.630295	943.198730	996.845276	942.009949	-2.215952
220.006592	940.078064	999.817383	933.093567	-11.691625
220.382889	943.718933	993.204529	936.362976	-14.864845
220.759140	943.941711	999.668762	938.443359	-9.866576
221.135391	941.266846	1003.383972	942.158508	1.435454
221.511581	940.523926	1006.058838	944.610535	6.235774
221.887772	937.774597	1001.080566	944.238953	10.211289
222.263931	947.285400	1001.377747	948.771484	2.747309
222.640060	950.257507	1006.727600	953.006653	4.868321
223.016159	942.975830	1017.575745	955.681580	17.031855
223.392212	931.161682	1031.098755	956.498840	25.353111
223.768265	925.886230	1035.482666	954.864258	26.440666
224.144302	935.025391	1030.504517	956.647461	22.645861
224.520294	945.204895	1028.349731	951.000488	6.970479
224.896286	940.969666	1025.749023	947.359680	7.537230
225.272217	935.545593	1028.869751	944.016052	9.076385
225.648148	928.263916	1027.458008	946.542297	18.426886
226.024048	940.449524	1026.714966	944.684753	4.909532
226.399902	940.226624	1025.526245	947.879822	8.972136
226.775772	952.486572	1022.108215	943.495911	-12.913602
227.151581	950.406067	1023.297119	943.644531	-9.276222
227.527374	953.749695	1036.300171	938.591980	-18.361753
227.903137	944.313293	1050.194580	940.895325	-3.228114
228.278870	943.198730	1067.432739	942.827209	-0.299049
228.654572	941.341125	1077.983887	947.359619	4.404546
229.030273	946.988098	1093.141724	952.932373	4.067142
229.405930	944.313232	1105.698853	951.966370	4.742143
229.781555	944.164734	1116.101196	947.062439	1.685335
230.157181	934.728271	1107.779297	942.529968	4.508322
230.532761	934.802551	1100.126099	939.929382	3.101089
230.908325	939.186462	1091.432739	936.734375	-1.610606
231.283859	952.412292	1098.937134	942.381348	-6.845901
231.659332	953.378235	1091.952759	953.675476	0.214499
232.034821	955.830261	1080.584473	958.207825	1.905798
232.410263	948.474304	1063.049072	949.365906	0.778183
232.785690	949.737366	1064.683716	935.545593	-12.346432
233.161087	953.229675	1065.946777	931.830383	-18.984957
233.536469	944.684814	1079.544312	930.864441	-10.247979
233.911804	941.638428	1086.900146	931.013000	-7.314678
234.287140	927.446594	1096.559570	933.613770	3.646778
234.662430	931.236023	1092.918701	937.254578	3.722449
235.037704	933.019348	1092.770142	935.248352	1.395301
235.412933	943.867493	1095.519287	932.573547	-7.447288
235.788162	943.867432	1103.543945	927.298035	-10.376853
236.163345	940.969727	1105.104370	937.328918	-2.218184
236.538513	933.242188	1107.036255	939.706543	3.719549
236.913635	931.384583	1105.104370	950.406189	10.949591
237.288742	935.174072	1116.026855	946.468079	6.244862
237.663834	940.003723	1121.005249	951.372070	6.280802
238.038879	952.412292	1125.389038	949.960266	-1.417547
238.413910	952.337952	1119.742065	960.437012	4.838029
238.788910	954.566956	1122.937012	954.715759	0.088379
239.163879	947.434021	1133.933838	959.099548	6.254981
239.538834	948.102722	1147.159790	954.938538	3.434098
239.913757	951.817871	1156.521851	959.173828	3.593461
240.288651	957.613525	1177.252319	956.796143	-0.372149
240.663528	957.539124	1208.831055	953.526855	-1.596656
241.038361	951.743469	1240.335327	950.926208	-0.283189
241.413177	942.084229	1274.291748	946.839539	1.431428
241.787979	939.112000	1304.978760	954.567078	4.224237
242.162735	938.963379	1350.080566	963.706299	6.018459
242.537476	940.300842	1370.959595	966.901367	6.176706
242.912170	945.130615	1392.581665	970.839417	5.745612
243.286865	947.879883	1387.826172	970.542175	5.151150
243.661514	950.257507	1374.526001	973.365662	5.446588
244.036148	948.177002	1349.114502	962.294617	3.521151
244.410751	950.331787	1335.665649	966.381165	4.165058
244.785339	949.440186	1335.739990	966.678406	4.462394
245.159882	948.102722	1354.835815	969.501892	5.261231
245.534378	940.449524	1388.792114	962.591736	4.938681
245.908890	943.273010	1452.246704	960.288330	3.343065
246.283356	937.774658	1525.286499	954.344177	2.820287
246.657791	949.737366	1614.375366	956.498962	1.017335
247.032196	946.245178	1687.340454	963.854919	2.376178
247.406586	955.978760	1730.213257	974.628845	2.408842
247.780960	949.365906	1735.191528	974.034424	3.139185
248.155289	951.520691	1709.482788	969.056091	2.313493
248.529602	950.480469	1670.622437	964.895203	2.001652
248.903870	948.325684	1612.369019	967.644287	2.909238
249.278122	945.650818	1546.239624	968.535950	3.810449
249.652344	934.951172	1485.980103	972.696960	6.850056
250.026550	934.059570	1440.804077	975.520447	8.181810
250.400711	939.780823	1427.652466	974.851746	7.188555
250.774857	944.387634	1432.110718	976.263489	6.535646
251.148987	945.353516	1455.961914	968.015930	4.438316
251.523071	941.564148	1478.401245	964.597961	4.290652
251.897125	944.833313	1497.645874	963.706299	3.413994
252.271164	938.889160	1509.831421	965.192383	4.606985
252.645187	941.861328	1518.896118	970.542175	4.970385
253.019165	937.477478	1520.456543	965.415222	4.792238
253.393112	946.319519	1507.750610	969.278992	4.089455
253.767044	942.530029	1478.995605	965.341003	4.252085
254.140930	951.594910	1452.618164	976.857910	5.042281
254.514801	953.452576	1438.128906	973.662842	4.169848
254.888657	948.325623	1438.054688	981.761902	6.827506
255.262466	941.861267	1437.683228	971.210876	5.919385
255.636276	939.483582	1458.785522	974.331604	6.710551
256.010010	950.108887	1480.630371	971.731018	4.075637
256.383759	953.303894	1518.078979	977.303711	4.249447
256.757446	953.006653	1542.524414	983.916687	5.243275
257.131134	945.279236	1587.403320	994.987793	7.741270
257.504791	943.644531	1634.882813	983.842285	5.815325
257.878418	938.369080	1718.473511	980.052917	5.343366
258.252014	946.542419	1810.905884	976.040527	3.412697
258.625580	948.920105	1923.771851	994.170410	4.641763
258.999115	948.845886	2053.801514	1006.653259	5.231647
259.372650	943.050110	2199.137695	1014.009277	5.649221
259.746124	934.876770	2346.554199	1025.451782	6.416126
260.119598	933.910889	2429.996338	1030.727295	6.471315
260.493042	930.344421	2442.924805	1024.708862	6.238640
260.866425	935.694153	2369.810791	1013.414856	5.419413
261.239838	945.427795	2264.152588	1002.343750	4.315984
261.613159	954.715637	2142.221924	999.000000	3.729190
261.986511	947.656921	2044.662231	997.068176	4.504194
262.359802	933.093567	1964.043823	992.387146	5.751352
262.733063	924.102844	1912.403442	986.665833	6.330360
263.106293	922.542542	1892.639038	976.189209	5.530034
263.479523	934.802490	1891.078491	979.384216	4.662014
263.852692	945.279236	1888.998047	983.619446	4.062673
264.225861	956.796082	1876.069336	986.517273	3.233118
264.598969	957.985046	1879.710327	987.260315	3.176138
264.972076	951.743591	1895.462524	985.551270	3.582388
265.345154	950.703308	1938.186523	992.833008	4.266371
265.718201	943.050110	1981.727905	991.495544	4.664145
266.091217	951.520691	2046.073853	993.427429	3.828661
266.464203	952.635254	2099.572021	999.594482	4.094317
266.837158	957.687805	2146.234131	1004.349854	3.925976
267.210114	943.050232	2188.364014	1009.179504	5.310250
267.583038	935.322754	2202.407227	1007.099121	5.664687
267.955902	931.236084	2214.146729	1001.749268	5.496344
268.328766	938.517761	2209.094238	1003.086731	5.081864
268.701569	944.090393	2240.747070	1003.458191	4.578528
269.074371	954.492737	2253.675781	1013.489075	4.541033
269.447144	958.430847	2295.656982	1017.055603	4.384057
269.819885	956.053040	2349.749268	1021.588074	4.702247
270.192596	951.149109	2461.872070	1019.136169	4.500300
270.565277	946.913879	2593.833740	1032.139160	5.174829
270.937927	946.096680	2723.194580	1041.724121	5.381102
271.310577	943.570313	2834.574219	1048.411255	5.544195
271.683136	943.718811	2899.366455	1043.210083	5.087382
272.055725	946.542297	2924.703857	1044.621948	4.958121
272.428284	945.056335	2897.508789	1046.702515	5.206077
272.800812	944.016113	2848.766357	1047.445435	5.430073
273.173279	943.867432	2788.878662	1045.662231	5.517300
273.545776	947.508301	2745.782471	1044.101807	5.371456
273.918152	946.690918	2701.720947	1039.495117	5.287898
274.290558	942.084167	2680.099121	1033.550903	5.262713
274.662964	936.065674	2668.953857	1032.584839	5.569844
275.035278	938.591980	2686.786377	1036.077026	5.576328
275.407593	940.746765	2705.436279	1040.089478	5.629473
275.779907	948.845764	2752.618408	1041.278320	5.124402
276.152161	949.440186	2802.252686	1040.906860	4.936640
276.524384	952.486572	2851.218018	1048.931519	5.079441
276.896606	955.755859	2884.951904	1054.652832	5.126331
277.268799	960.214050	2902.338623	1051.086304	4.679013
277.640930	958.950989	2919.205078	1036.894531	3.976196
278.013031	951.669250	2921.731689	1039.643677	4.465565
278.385162	952.263672	2929.087646	1038.306274	4.352568
278.757233	949.217285	2924.257813	1042.021362	4.698844
279.129272	945.427795	2951.824219	1037.786011	4.603189
279.501282	940.003723	2982.362549	1041.872681	4.987809
279.873230	937.328857	3051.241211	1050.566284	5.356770
280.245178	936.957336	3153.407471	1055.024292	5.326849
280.617126	941.118225	3289.901611	1068.844727	5.437985
280.988983	947.805481	3418.593750	1066.021240	4.784536
281.360870	948.399902	3522.171875	1074.937500	4.916426
281.732697	941.489746	3609.626221	1067.507202	4.723052
282.104492	939.557922	3654.059326	1080.361572	5.187090
282.476288	947.731201	3671.371826	1072.931274	4.596791
282.848053	951.446472	3645.217041	1083.482300	4.901525
283.219757	946.170898	3646.926514	1079.990112	4.954881
283.591461	938.889221	3623.000732	1082.516235	5.351007
283.963135	935.545593	3647.966553	1077.686646	5.240376
284.334747	936.511536	3693.439697	1072.708374	4.940166
284.706360	941.415466	3796.200439	1077.240845	4.757815
285.077942	941.341125	3900.744385	1082.219238	4.760355
285.449524	942.827148	3994.365479	1093.438843	4.935599
285.821014	937.551758	4013.238525	1093.661621	5.075610
286.192535	940.672424	4041.844971	1095.073486	4.978796
286.563995	939.260742	4038.501221	1091.878540	4.924361
286.935425	944.833496	4026.464600	1092.026978	4.776480
287.306824	941.415527	3942.725342	1093.661743	5.072659
287.678223	946.245178	3860.175049	1092.844360	5.030978
288.049561	941.192566	3814.255859	1095.445068	5.368921
288.420898	947.582581	3816.262451	1090.317993	4.975648
288.792145	947.062500	3859.803711	1098.268555	5.191194
289.163452	947.285339	3949.784180	1103.321167	5.196866
289.534668	947.062500	4066.662109	1109.042480	5.192332
289.905914	950.480408	4185.769531	1110.082642	4.933167
290.277039	953.675476	4286.598145	1116.175537	4.875603
290.648193	948.028503	4344.703125	1120.484985	5.077215
291.019318	944.981995	4340.541504	1116.621338	5.054818
291.390381	945.279114	4273.149414	1105.698730	4.820489
291.761475	946.245117	4201.075684	1108.893677	4.997144
292.132507	944.016113	4153.150391	1102.800903	4.947901
292.503510	945.427917	4142.599609	1109.116699	5.119800
292.874481	942.455750	4186.289551	1106.962036	5.071354
293.245422	942.604309	4271.960938	1110.008301	5.028118
293.616364	944.759094	4423.389160	1119.444946	5.021685
293.987213	947.136780	4551.487793	1124.348755	4.916613
294.358093	949.514465	4673.121094	1137.054565	5.036518
294.728943	946.468079	4790.147949	1135.345581	4.913976
295.099731	948.177002	4916.536621	1142.255737	4.890654
295.470490	948.251282	5031.260254	1146.416748	4.853417
295.841248	948.251282	5131.865723	1152.658203	4.885893
296.211975	950.406067	5253.351074	1158.156494	4.828099
296.582642	949.217224	5394.080566	1165.661011	4.869526
296.953308	947.656921	5448.470215	1177.103638	5.097894
297.323883	946.245117	5428.928223	1181.264648	5.242832
297.694519	947.433899	5309.375488	1182.899292	5.398179
298.065063	953.080994	5172.509766	1166.106812	5.048688
298.435608	949.440125	4995.817383	1150.577515	4.970802
298.806122	947.805481	4803.521973	1134.528198	4.842750
299.176575	946.393738	4638.272949	1129.401367	4.957032
299.547028	947.508240	4519.982910	1122.862793	4.908490
299.917450	946.319397	4482.831543	1129.475708	5.179010
300.287872	935.917053	4463.513184	1122.714233	5.295311
300.658234	944.090393	4461.507324	1123.754395	5.107839
301.028564	947.062500	4433.717285	1115.729614	4.837505
301.398865	961.625793	4400.801270	1123.308472	4.701205
301.769135	959.916809	4349.532715	1122.119629	4.785286
302.139374	962.368835	4297.817871	1125.760620	4.898644
302.509583	943.793213	4253.904785	1117.958740	5.261621
302.879791	942.084229	4194.091309	1111.717285	5.216257
303.249939	939.780945	4149.955078	1103.692505	5.106002
303.620087	945.279236	4112.061035	1109.859741	5.197090
303.990173	943.570251	4105.076660	1115.283936	5.431388
304.360260	949.588806	4109.757813	1113.872192	5.198564
304.730286	961.328613	4096.903809	1096.336792	4.305691
305.100281	963.186218	4092.371094	1095.222046	4.219496
305.470276	957.241943	4081.002930	1096.856812	4.469448
305.840179	950.926270	4098.389648	1106.961792	4.957501
306.210144	940.969666	4114.141113	1106.515991	5.217062
306.579987	937.551758	4164.518555	1106.738892	5.242915
306.949890	935.768494	4215.416504	1106.664795	5.210813
307.319702	942.455750	4316.690918	1115.283936	5.121996
307.689484	942.455750	4413.210449	1127.841064	5.341355
308.059265	941.415527	4528.973633	1137.128906	5.455337
308.429016	936.065674	4609.443848	1136.088501	5.445201
308.798737	940.152283	4686.867188	1134.676880	5.191871
309.168396	937.403076	4733.157715	1130.664551	5.091516
309.538055	943.198730	4751.138672	1130.664551	4.923025
309.907684	935.322693	4746.160645	1128.138184	5.059661
310.277313	940.449524	4768.228516	1134.231079	5.062506
310.646851	938.443359	4769.640625	1138.243408	5.215081
311.016388	950.777588	4777.888184	1142.552856	5.010968
311.385895	953.675476	4715.770996	1135.196899	4.825008
311.755371	954.418457	4668.068848	1123.011353	4.539816
312.124817	947.954102	4589.679199	1117.438721	4.653965
312.494232	947.359619	4521.767090	1119.816284	4.824762
312.863617	950.034485	4490.336426	1127.989624	5.026553
313.232971	950.926208	4503.710449	1129.104004	5.015160
313.602295	950.851868	4584.254395	1130.292969	4.938652
313.971619	946.988098	4663.312988	1135.419800	5.070377
314.340820	948.548523	4695.782715	1133.785278	4.943293
314.710083	939.929382	4701.727051	1134.899780	5.182905
315.079285	944.461853	4630.322754	1128.955444	5.005441
315.448486	942.678711	4555.351563	1126.503540	5.088333
315.817596	947.879883	4429.110840	1111.940186	4.712709
316.186707	949.143005	4330.585449	1104.212769	4.585906
316.555786	949.365784	4235.923828	1098.491333	4.537438
316.924866	949.440186	4177.967773	1103.841187	4.782397
317.293884	946.616699	4171.131836	1107.779297	4.998041
317.662872	944.090393	4200.704102	1100.274780	4.795914
318.031830	949.291565	4228.864746	1104.361328	4.728352
318.400757	947.136719	4263.341309	1102.206543	4.676124
318.769684	948.920105	4288.604492	1108.596558	4.781184
319.138550	945.502136	4308.071777	1105.104370	4.746437
319.507416	949.811707	4268.319824	1106.441772	4.719894
319.876190	946.319519	4207.688965	1105.104370	4.868656
320.244995	948.697205	4145.051270	1105.030151	4.890977
320.613770	944.239014	4106.265625	1096.931030	4.828929
320.982483	951.149170	4128.036133	1097.451294	4.605204
321.351166	944.313293	4168.977051	1100.200439	4.834214
321.719818	943.273010	4238.672852	1107.482056	4.982978
322.088440	939.483582	4345.000488	1113.277710	5.103312
322.457062	946.319519	4526.298828	1122.342651	4.916876
322.825623	953.452637	4688.204590	1136.905884	4.912060
323.194183	950.926270	4807.237793	1145.673584	5.050093
323.562653	948.325684	4865.639648	1144.336060	5.003693
