Jaz Data File
++++++++++++++++++++++++++++++++++++
Date: Fri Jun 04 11:28:29 2021
User: jaz
Dark Spectrum Present: Yes
Reference Spectrum Present: Yes
Processed Spectrum Present: Yes
Spectrometers: JAZA3586
Integration Time (usec): 60500 (JAZA3586)
Spectra Averaged: 10 (JAZA3586)
Boxcar Smoothing: 1 (JAZA3586)
Correct for Electrical Dark: No (JAZA3586)
Strobe/Lamp Enabled: Yes (JAZA3586)
Correct for Detector Non-linearity: No (JAZA3586)
Correct for Stray Light: No (JAZA3586)
Number of Pixels in Processed Spectrum: 2048
>>>>>Begin Processed Spectral Data<<<<<
W	D	R	S	P
191.335022	0.000000	0.000000	0.000000	0.000000
191.713211	493.295746	493.890167	487.648773	-949.994873
192.091385	992.164124	991.124023	977.377930	1421.612549
192.469528	1490.066772	1487.614746	1472.234009	727.266418
192.847641	1500.692017	1502.103882	1480.704590	-1415.675293
193.225739	1502.029663	1506.933472	1490.363892	-237.892059
193.603790	1511.317383	1517.038696	1497.794312	-236.363052
193.981842	1518.821899	1518.375977	1498.462891	4565.589844
194.359863	1529.372681	1520.010742	1503.292603	278.575623
194.737854	1532.716431	1522.165527	1503.366821	278.171539
195.115829	1531.230469	1520.679565	1502.252441	274.649719
195.493774	1535.020020	1528.852661	1502.995483	519.258545
195.871704	1529.224243	1533.831055	1503.589844	-556.445557
196.249603	1534.276733	1540.072632	1510.871582	-403.822662
196.627457	1530.710327	1537.100464	1509.385376	-333.716675
197.005310	1539.180786	1533.385376	1509.459839	512.835938
197.383133	1533.310913	1528.852905	1502.846680	683.359802
197.760910	1536.951782	1524.766113	1500.766235	296.951660
198.138687	1531.230469	1522.982910	1492.890259	464.867371
198.516449	1531.453491	1520.679321	1497.942871	311.027405
198.894180	1529.001343	1525.286255	1494.153442	938.010132
199.271866	1528.927124	1524.543335	1508.048218	476.275330
199.649536	1526.475098	1525.657837	1507.082031	2372.935059
200.027191	1527.441040	1521.051147	1511.837402	244.192490
200.404816	1528.183960	1530.264648	1504.332642	-1146.318604
200.782410	1528.852661	1541.187012	1511.614380	-139.758316
201.159988	1521.422485	1553.001099	1510.648804	-34.117020
201.537537	1518.970703	1555.304565	1518.747681	-0.613814
201.915070	1520.010742	1549.806152	1513.472046	-21.945314
202.292557	1523.428711	1551.515137	1524.246094	2.910241
202.670029	1518.970337	1549.954712	1519.936523	3.118302
203.047485	1518.301758	1550.103516	1518.821899	1.635575
203.424911	1510.648560	1546.165405	1507.156250	-9.832826
203.802292	1515.701172	1548.691772	1505.075806	-32.207253
204.179688	1513.249146	1550.028931	1509.682617	-9.696980
204.557037	1512.654785	1547.799927	1517.781738	14.587943
204.934357	1513.472168	1545.348022	1516.295532	8.857376
205.311661	1517.633179	1546.833984	1516.221313	-4.835021
205.688934	1517.410156	1551.663696	1511.391602	-17.570606
206.066177	1512.506226	1551.960938	1508.939575	-9.039859
206.443390	1510.351563	1549.657593	1503.069824	-18.525753
206.820587	1516.072754	1547.799927	1500.989258	-47.541256
207.197769	1518.078979	1552.109497	1506.784790	-33.188416
207.574921	1509.311157	1560.059937	1518.301758	17.715895
207.952042	1509.014038	1561.248901	1525.806274	32.147564
208.329147	1506.636230	1556.121948	1526.475098	40.090088
208.706223	1522.537109	1557.310913	1530.784790	23.718086
209.083267	1516.147095	1565.558228	1529.075684	26.165337
209.460297	1516.147095	1565.707031	1529.447266	26.836538
209.837280	1502.178223	1558.573853	1513.397827	19.894457
210.214264	1500.246216	1552.703735	1507.825195	14.447842
210.591217	1499.800415	1552.703979	1497.125488	-5.056231
210.968124	1501.509399	1554.932983	1496.679688	-9.040412
211.345016	1508.865356	1554.412964	1498.760132	-22.186071
211.721893	1506.859375	1560.951660	1510.202759	6.180889
212.098724	1509.385620	1558.425293	1514.140747	9.696490
212.475555	1510.574219	1551.069336	1509.756958	-2.018171
212.852356	1512.580444	1546.388306	1506.859253	-16.922667
213.229126	1505.893188	1545.348022	1509.088379	8.098350
213.605865	1503.144043	1548.617188	1510.054199	15.196126
213.982590	1501.880859	1551.143555	1501.732300	-0.301566
214.359283	1506.933594	1555.155884	1495.044922	-24.653893
214.735931	1501.212280	1563.255005	1499.280273	-3.113994
215.112579	1503.515625	1562.437622	1499.577515	-6.683599
215.489197	1497.794312	1562.734863	1505.521606	11.899029
215.865799	1502.326660	1565.261108	1501.955078	-0.590427
216.242355	1504.258667	1566.450073	1507.379272	5.017744
216.618896	1511.243042	1567.118652	1500.840698	-18.616966
216.995407	1512.877563	1555.007324	1496.828491	-38.094383
217.371902	1505.521851	1555.824585	1494.970703	-20.975296
217.748367	1502.178101	1551.663696	1500.320679	-3.753460
218.124802	1497.274048	1556.641968	1507.007813	16.395664
218.501236	1496.828491	1545.570923	1507.082031	21.036169
218.877609	1497.348511	1545.050781	1505.744629	17.601088
219.253983	1499.577515	1548.988892	1502.178101	5.263132
219.630295	1501.286499	1557.756714	1505.893188	8.157733
220.006592	1502.921021	1565.335449	1500.394897	-4.047338
220.382889	1502.921265	1565.781250	1504.407104	2.363729
220.759140	1498.314453	1562.214844	1501.360718	4.767208
221.135391	1493.336060	1557.607910	1499.948853	10.288786
221.511581	1487.094727	1560.208496	1493.930542	9.349560
221.887772	1501.806641	1556.864868	1497.051270	-8.636986
222.263931	1505.447266	1558.128052	1511.094360	10.719458
222.640060	1509.905640	1553.595581	1515.255371	12.244767
223.016159	1498.760132	1560.208496	1517.038696	29.746218
223.392212	1507.007813	1567.713013	1513.249390	10.281783
223.768265	1503.441040	1569.496460	1511.168579	11.698569
224.144302	1505.373047	1579.230103	1506.933594	2.112929
224.520294	1496.233765	1574.177368	1504.407227	10.486380
224.896286	1493.558960	1574.400391	1513.323608	24.448662
225.272217	1495.565063	1576.406616	1516.072632	25.367609
225.648148	1488.654907	1581.013306	1516.444214	30.088554
226.024048	1496.679688	1591.341431	1516.890015	21.350048
226.399902	1495.044922	1584.802734	1519.490601	27.235155
226.775772	1499.354492	1590.524048	1514.661011	16.789068
227.151581	1501.435181	1591.415649	1513.174927	13.046993
227.527374	1503.069702	1605.087280	1508.642578	5.462663
227.903137	1509.979858	1617.941772	1514.883911	4.542391
228.278870	1511.614624	1635.848633	1512.208984	0.478420
228.654572	1512.134766	1645.508179	1516.072754	2.952604
229.030273	1510.574219	1648.257202	1518.598999	5.828447
229.405930	1503.812866	1649.966309	1520.159302	11.184434
229.781555	1503.589844	1657.099243	1524.766235	13.794850
230.157181	1489.100708	1662.523438	1516.221313	15.638437
230.532761	1490.586914	1660.442749	1516.295532	15.135552
230.908325	1493.113281	1654.498657	1514.958130	13.535830
231.283859	1500.766479	1647.959961	1524.097290	15.850437
231.659332	1504.035767	1642.907349	1519.639282	11.235931
232.034821	1504.035767	1641.421509	1516.667114	9.194075
232.410263	1513.026367	1637.409180	1520.605347	6.093269
232.785690	1511.168823	1639.489624	1524.914673	10.712098
233.161087	1510.500000	1639.043823	1523.205688	9.884324
233.536469	1507.156372	1643.130371	1520.084961	9.508133
233.911804	1509.905640	1640.901367	1526.326538	12.535446
234.287140	1510.871460	1638.746460	1529.372925	14.468399
234.662430	1505.893188	1639.638184	1533.608032	20.722155
235.037704	1502.401001	1645.805176	1536.951782	24.093288
235.412933	1500.394897	1651.823730	1537.026001	24.190310
235.788162	1506.784790	1661.929077	1525.583374	12.116839
236.163345	1509.385620	1665.421265	1515.329712	3.809445
236.538513	1509.756958	1666.461426	1517.038696	4.646797
236.913635	1497.497070	1668.690430	1533.013672	20.746483
237.288742	1492.295898	1669.879272	1541.335571	27.615013
237.663834	1491.626953	1671.067993	1543.861938	29.109833
238.038879	1504.481445	1669.879272	1540.295410	21.653225
238.413910	1510.054321	1678.795532	1533.013794	13.606322
238.788910	1505.596191	1687.934937	1537.323242	17.400061
239.163879	1494.970703	1699.600586	1538.958008	21.496033
239.538834	1489.175171	1706.807983	1551.292358	28.542198
239.913757	1487.763306	1729.395874	1556.047485	28.259510
240.288651	1496.754028	1736.380249	1568.604614	29.984442
240.663528	1498.537109	1756.144897	1571.651001	28.381865
241.038361	1501.212280	1778.138306	1579.229858	28.172714
241.413177	1497.720093	1818.038940	1578.486938	25.214516
241.787979	1500.989258	1860.020020	1593.050293	25.641544
242.162735	1503.515625	1891.672852	1606.722046	26.588820
242.537476	1512.877808	1905.195923	1621.433960	27.670441
242.912170	1515.181030	1918.867676	1629.755859	28.382120
243.286865	1517.558716	1913.666626	1627.303833	27.705864
243.661514	1506.859253	1916.341431	1631.836304	30.520754
244.036148	1506.264771	1890.409790	1626.560913	31.315294
244.410751	1503.887085	1884.317017	1623.217163	31.367163
244.785339	1496.531128	1883.648315	1623.514282	32.802250
245.159882	1492.890259	1901.332397	1625.966309	32.581371
245.534378	1490.438354	1928.675781	1648.257202	36.012180
245.908890	1496.233887	1978.607056	1660.591431	34.072697
246.283356	1491.552734	2052.538330	1685.037109	34.490078
246.657791	1490.884155	2140.141357	1710.671509	33.852123
247.032196	1493.410522	2205.453369	1731.699219	33.465500
247.406586	1501.657837	2245.130859	1757.036499	34.349419
247.780960	1496.530884	2241.490234	1757.630859	35.048889
248.155289	1498.537231	2212.660645	1756.367798	36.104485
248.529602	1496.456665	2168.970703	1734.597046	35.410469
248.903870	1509.088257	2114.803955	1716.541504	34.249275
249.278122	1508.493774	2065.615479	1701.458008	34.635921
249.652344	1513.992188	2025.194824	1691.278687	34.680279
250.026550	1506.190430	2003.498535	1689.346680	36.829533
250.400711	1504.927368	1988.266602	1685.631470	37.386600
250.774857	1502.103882	1990.198608	1685.928711	37.661713
251.148987	1509.831421	2001.046753	1693.210449	37.331699
251.523071	1509.162598	2034.037109	1700.937866	36.537357
251.897125	1510.425781	2048.526123	1721.891235	39.298515
252.271164	1505.076050	2057.516846	1727.241211	40.215199
252.645187	1509.385376	2047.114258	1735.786011	42.103119
253.019165	1505.521851	2032.476685	1724.343140	41.525623
253.393112	1503.664185	2017.170288	1713.123413	40.790016
253.767044	1498.462891	1996.439575	1702.943970	41.062382
254.140930	1497.942871	1985.071289	1692.690308	39.978664
254.514801	1497.571289	1967.981812	1685.557129	39.962082
254.888657	1493.781860	1965.158325	1683.848267	40.321571
255.262466	1495.416626	1973.257446	1689.718140	40.662392
255.636276	1498.017090	1998.891724	1711.488892	42.619808
256.010010	1509.682617	2020.811035	1722.708496	41.677567
256.383759	1509.979858	2044.587891	1730.436035	41.236973
256.757446	1507.527954	2067.918945	1736.380249	40.837967
257.131134	1508.122437	2111.311768	1752.355469	40.490276
257.504791	1509.236938	2164.141113	1781.333496	41.547539
257.878418	1515.552612	2235.620361	1810.460083	40.955517
258.252014	1513.249146	2318.616699	1855.338989	42.476238
258.625580	1507.676392	2429.773438	1915.004028	44.174053
258.999115	1504.333008	2561.289063	1982.396484	45.230213
259.372650	1501.360840	2710.414307	2052.760986	45.605934
259.746124	1505.001587	2820.753906	2100.240479	45.239433
260.119598	1506.710571	2880.716064	2134.791504	45.711674
260.493042	1510.797241	2859.688721	2127.806885	45.741978
260.866425	1507.602173	2791.850342	2103.287109	46.383942
261.239838	1509.311157	2692.061768	2051.200928	45.816063
261.613159	1508.865234	2589.821289	2007.065063	46.088814
261.986511	1505.075806	2515.815674	1971.251099	46.122185
262.359802	1506.190430	2459.717285	1947.920288	46.325897
262.733063	1507.379272	2433.265381	1930.682007	45.718662
263.106293	1510.797241	2399.606201	1927.041016	46.831635
263.479523	1510.648438	2378.355713	1926.892212	47.970528
263.852692	1503.738403	2367.433350	1926.446655	48.941845
264.225861	1508.716797	2356.882324	1915.301147	47.936909
264.598969	1505.521606	2363.866943	1917.233032	47.965710
264.972076	1507.602173	2384.523193	1926.892456	47.813915
265.345154	1512.580566	2437.352051	1954.830078	47.822571
265.718201	1508.791138	2488.397949	1977.343872	47.830692
266.091217	1512.877563	2547.691650	2007.956665	47.842323
266.464203	1505.373047	2593.833740	2039.015137	49.027225
266.837158	1505.224609	2648.297607	2069.702148	49.382458
267.210114	1498.165894	2675.715088	2095.188232	50.700417
267.583038	1498.091431	2697.783203	2100.240967	50.192020
267.955902	1507.750854	2704.619141	2091.993164	48.814251
268.328766	1510.276978	2711.603760	2087.312256	48.033165
268.701569	1506.116211	2725.126709	2092.958984	48.140911
269.074371	1496.679688	2737.386719	2114.358154	49.784393
269.447144	1496.976929	2767.627686	2136.351807	50.318695
269.819885	1502.624023	2826.252686	2173.503174	50.684845
270.192596	1501.880859	2942.164795	2229.824463	50.541672
270.565277	1503.664185	3079.253174	2305.019043	50.860653
270.937927	1498.760254	3203.264648	2369.364990	51.076710
271.310577	1500.097656	3279.425049	2414.095459	51.367603
271.683136	1502.623901	3318.953857	2431.705322	51.151577
272.055725	1502.995483	3327.424561	2432.448242	50.944855
272.428284	1502.252563	3302.458984	2414.615479	50.681015
272.800812	1502.549805	3263.821289	2402.578369	51.101070
273.173279	1502.698242	3199.549561	2385.265869	52.012077
273.545776	1502.772583	3163.512451	2369.365234	52.181118
273.918152	1494.153320	3126.212158	2338.083740	51.709560
274.290558	1494.673462	3116.701904	2330.133301	51.507103
274.662964	1496.233765	3116.776123	2336.894775	51.875286
275.035278	1502.326660	3129.853516	2353.167236	52.278130
275.407593	1502.178101	3155.785156	2370.999756	52.540997
275.779907	1501.360718	3199.698242	2399.903564	52.907200
276.152161	1497.794312	3250.298584	2432.076416	53.311260
276.524384	1495.490845	3304.614014	2454.367432	53.002285
276.896606	1496.828247	3328.613281	2459.345703	52.545326
277.268799	1505.001587	3339.164063	2465.958740	52.392151
277.640930	1501.880859	3339.535889	2482.008057	53.335754
278.013031	1496.828247	3332.848633	2488.398193	54.006477
278.385162	1493.336060	3331.733643	2496.719971	54.579266
278.757233	1502.326660	3346.817627	2501.401367	54.165337
279.129272	1508.122437	3382.631592	2527.332764	54.372116
279.501282	1507.379272	3435.906982	2548.731934	53.997288
279.873230	1499.577515	3511.472656	2593.165039	54.356091
280.245178	1506.487671	3619.285400	2645.548584	53.912441
280.617126	1506.710571	3744.857422	2724.011963	54.388805
280.988983	1517.484497	3852.670654	2777.955811	53.977341
281.360870	1515.478394	3937.598389	2840.593018	54.708874
281.732697	1513.992188	4004.396484	2877.224365	54.739391
282.104492	1507.825195	4039.244385	2907.093750	55.276051
282.476288	1498.537231	4047.789063	2910.066162	55.370319
282.848053	1501.063477	4025.201172	2901.447021	55.479683
283.219757	1506.562012	4024.680908	2894.611084	55.122459
283.591461	1505.447388	4020.000000	2899.069092	55.422249
283.963135	1503.367065	4037.906982	2919.948242	55.891056
284.334747	1502.475220	4089.324219	2964.381592	56.513012
284.706360	1508.493774	4175.886719	3005.099365	56.107426
285.077942	1506.041870	4292.468262	3061.123291	55.809174
285.449524	1504.184204	4382.597656	3110.311768	55.799053
285.821014	1503.589844	4406.300293	3133.569092	56.153698
286.192535	1502.029419	4416.256348	3151.030029	56.584492
286.563995	1501.657837	4392.627930	3140.701416	56.695278
286.935425	1502.624023	4369.965332	3136.615234	56.986282
287.306824	1502.772583	4280.951172	3099.463867	57.472591
287.678223	1504.035645	4222.920410	3064.021484	57.375946
288.049561	1502.475464	4179.676270	3038.832764	57.386707
288.420898	1505.818970	4197.806152	3043.885010	57.134968
288.792145	1508.122437	4238.673340	3085.048828	57.751221
289.163452	1515.181152	4341.582520	3142.930664	57.590885
289.534668	1510.648804	4460.466797	3216.119141	57.816124
289.905914	1510.351440	4558.249023	3274.595459	57.883968
290.277039	1504.258423	4646.669434	3331.957031	58.162300
290.648193	1511.540161	4680.625488	3355.585205	58.188557
291.019318	1509.459839	4668.439453	3356.031250	58.454681
291.390381	1507.230591	4577.345215	3317.022217	58.948666
291.761475	1507.007813	4505.791504	3289.381592	59.436558
292.132507	1501.138062	4478.596680	3262.855469	59.168495
292.503510	1506.264648	4493.754395	3272.811768	59.131489
292.874481	1502.549683	4559.437988	3300.972656	58.831821
293.245422	1509.534058	4647.114746	3376.984375	59.518799
293.616364	1504.332886	4795.646484	3467.559326	59.648724
293.987213	1504.035522	4922.109375	3551.744385	59.908272
294.358093	1506.041870	5036.460938	3608.957764	59.565624
294.728943	1508.939575	5116.262207	3654.802490	59.486298
295.099731	1507.825195	5221.400879	3723.012451	59.651058
295.470490	1504.481445	5332.854980	3794.639893	59.820663
295.841248	1503.218262	5451.145020	3868.496826	59.911915
296.211975	1505.818848	5565.199219	3932.322998	59.775234
296.582642	1505.224609	5657.408691	4003.727783	60.173229
296.953308	1508.493774	5701.173828	4039.541748	60.368256
297.323883	1509.534180	5662.312988	4017.771240	60.399006
297.694519	1507.676636	5554.500000	3957.957275	60.548252
298.065063	1506.413452	5420.011719	3888.335693	60.862720
298.435608	1503.887085	5269.326172	3813.735596	61.343410
298.806122	1502.326538	5091.222168	3691.879150	61.009098
299.176575	1506.784790	4938.456055	3592.685303	60.783802
299.547028	1503.887085	4836.438965	3526.035400	60.678677
299.917450	1508.047852	4810.953125	3512.215576	60.678936
300.287872	1502.698120	4808.872070	3522.914795	61.104370
300.658234	1503.887085	4809.243164	3523.435303	61.099266
301.028564	1504.258423	4796.166504	3518.085205	61.175060
301.398865	1500.989258	4755.671387	3495.794189	61.290314
301.769135	1502.624023	4692.812012	3469.268311	61.646660
302.139374	1502.995483	4635.301270	3455.225342	62.325649
302.509583	1507.527954	4591.833984	3423.423096	62.117542
302.879791	1507.973633	4541.902344	3389.541260	62.017529
303.249939	1498.463013	4501.184570	3358.928467	61.959305
303.620087	1491.998657	4462.844238	3348.897705	62.504055
303.990173	1495.416504	4466.634277	3353.876221	62.548756
304.360260	1503.441406	4460.912598	3346.520264	62.319420
304.730286	1510.351440	4457.940918	3350.978516	62.445168
305.100281	1506.562012	4437.878906	3347.040283	62.786739
305.470276	1504.630005	4442.262695	3361.901123	63.223392
305.840179	1503.218384	4470.423340	3374.309326	63.059036
306.210144	1502.401001	4507.871582	3398.680664	63.094265
306.579987	1501.657837	4548.589355	3424.612305	63.111179
306.949890	1497.571289	4602.236328	3466.444580	63.416611
307.319702	1499.503296	4684.860840	3535.992188	63.932823
307.689484	1504.630005	4786.581055	3612.375000	64.222321
308.059265	1504.258423	4870.691895	3678.281494	64.579407
308.429016	1501.286499	4940.685059	3720.411377	64.520729
308.798737	1496.902466	5005.699707	3772.200439	64.845520
309.168396	1497.199829	5058.603027	3814.032471	65.053925
309.538055	1501.435059	5088.918457	3843.010986	65.270714
309.907684	1505.075806	5077.401855	3839.369873	65.343811
310.277313	1507.156616	5085.724121	3844.645508	65.319122
310.646851	1509.088257	5081.414551	3852.076172	65.587173
311.016388	1504.853027	5074.281250	3854.379639	65.823616
311.385895	1506.784790	5019.742676	3822.949463	65.932030
311.755371	1507.453613	4957.031738	3787.655518	66.100891
312.124817	1509.831421	4907.472168	3763.878662	66.341545
312.494232	1509.088257	4862.667480	3751.024170	66.852043
312.863617	1502.326660	4854.642578	3750.429688	67.061195
313.232971	1501.063599	4889.936523	3776.212891	67.135872
313.602295	1499.280273	4966.616699	3832.162842	67.281693
313.971619	1506.264771	5040.399902	3903.493408	67.830696
314.340820	1504.109985	5052.510254	3937.895752	68.588249
314.710083	1505.967651	5027.322266	3945.920166	69.290176
315.079285	1502.698242	4949.750000	3901.115967	69.578812
315.448486	1509.979980	4893.057129	3841.376221	68.913483
315.817596	1512.208984	4780.116699	3751.767578	68.531883
316.186707	1509.014038	4694.668457	3682.888672	68.239502
316.555786	1507.007813	4587.895996	3623.818115	68.707794
316.924866	1503.292603	4550.001465	3610.369141	69.159103
317.293884	1504.332886	4543.982910	3615.718750	69.461479
317.662872	1506.041992	4576.304199	3645.440186	69.681290
318.031830	1505.298828	4628.019043	3678.058838	69.579079
