Jaz Data File
++++++++++++++++++++++++++++++++++++
Date: Fri Jun 04 13:45:37 2021
User: jaz
Dark Spectrum Present: Yes
Reference Spectrum Present: Yes
Processed Spectrum Present: Yes
Spectrometers: JAZA3586
Integration Time (usec): 386000 (JAZA3586)
Spectra Averaged: 10 (JAZA3586)
Boxcar Smoothing: 1 (JAZA3586)
Correct for Electrical Dark: No (JAZA3586)
Strobe/Lamp Enabled: Yes (JAZA3586)
Correct for Detector Non-linearity: No (JAZA3586)
Correct for Stray Light: No (JAZA3586)
Number of Pixels in Processed Spectrum: 2048
>>>>>Begin Processed Spectral Data<<<<<
W	D	R	S	P
191.335022	0.000000	0.000000	0.000000	0.000000
191.713211	286.065460	285.248138	285.545380	63.632290
192.091385	572.502502	577.257874	579.486938	146.874680
192.469528	854.406982	861.837219	864.215027	132.001770
192.847641	859.682556	865.923828	871.868164	195.242386
193.225739	885.911377	882.047607	886.357178	-11.537975
193.603790	921.205139	908.276550	905.824463	118.966393
193.981842	931.979004	931.904785	919.421875	16919.078125
194.359863	932.573425	939.037842	931.830383	-11.494340
194.737854	946.170898	946.913879	947.211121	140.006577
195.115829	950.108887	942.530029	948.994324	14.706214
195.493774	946.170837	931.384583	935.991394	68.843956
195.871704	932.499207	924.103027	928.041016	53.097855
196.249603	954.121277	933.465088	939.037842	73.021385
196.627457	952.337952	942.604309	937.626038	151.145004
197.005310	948.399902	940.300964	937.328796	136.698242
197.383133	928.486816	932.424988	931.979004	88.675354
197.760910	946.839539	940.375305	950.331848	-54.025116
198.138687	946.839600	944.536194	958.430847	-503.222137
198.516449	949.663086	944.164612	952.783875	-56.757359
198.894180	927.966614	930.715820	932.945007	181.084747
199.271866	925.291748	933.687988	920.164856	-61.061760
199.649536	922.765442	935.174011	923.211243	3.592685
200.027191	932.870667	943.793030	939.112122	57.143814
200.404816	924.325867	940.300842	934.133789	61.395538
200.782410	923.880066	954.046875	950.331848	87.685051
201.159988	922.616882	964.077820	943.570251	50.537617
201.537537	931.756165	977.377991	952.115051	44.625320
201.915070	928.561218	968.610352	936.660095	20.222353
202.292557	920.685059	963.780579	942.827209	51.379242
202.670029	919.719177	959.396729	952.709473	83.145996
203.047485	921.502441	963.483398	952.263672	73.274246
203.424911	920.016357	963.929199	949.217285	66.497467
203.802292	913.997803	969.353333	947.210999	59.999779
204.179688	909.465332	967.867249	956.276062	80.152733
204.557037	912.363098	964.597961	955.087158	81.792229
204.934357	925.737610	956.350342	958.802246	108.009430
205.311661	936.288574	955.161438	948.325684	63.779984
205.688934	933.242188	959.396729	944.759094	44.034061
206.066177	919.570496	957.019043	934.654053	40.278084
206.443390	908.796631	960.436951	941.192627	62.733917
206.820587	908.870911	949.365906	939.780823	76.330200
207.197769	923.508545	966.678406	950.257507	61.962124
207.574921	926.332031	963.706299	945.576477	51.491165
207.952042	931.533203	973.514221	948.845764	41.239021
208.329147	931.236023	965.489563	943.718933	36.442688
208.706223	1056.881958	1091.878540	1063.717773	19.532808
209.083267	1059.556763	1097.971313	1072.485474	33.655766
209.460297	1049.600220	1098.119995	1069.216187	40.428806
209.837280	920.759277	970.393555	948.845703	56.586754
210.214264	906.344543	961.179993	938.369080	58.401157
210.591217	898.617126	952.189392	937.477478	72.538193
210.968124	907.384827	968.387390	945.799316	62.971928
211.345016	922.245422	974.183044	952.635193	58.512054
211.721893	922.839844	977.526611	946.988220	44.157623
212.098724	917.638672	957.390625	942.381531	62.243126
212.475555	922.542664	960.214111	940.895325	48.717697
212.852356	933.390686	959.248230	948.771484	59.482826
213.229126	940.003723	970.170593	950.480408	34.729107
213.605865	923.880066	955.904480	936.288574	38.747028
213.982590	911.768738	956.053040	934.951172	52.349102
214.359283	899.805969	953.155273	929.155518	55.013927
214.735931	895.942200	960.511230	939.260742	67.088730
215.112579	900.400391	967.644287	947.136780	69.502800
215.489197	901.440613	968.610352	945.204895	65.154762
215.865799	909.168152	980.275879	941.787048	45.872505
216.242355	903.818298	971.359558	937.180237	49.394901
216.618896	918.307312	983.768066	946.022278	42.338291
216.995407	915.409424	969.873352	944.907654	54.161041
217.371902	914.889343	968.387390	935.545593	38.611221
217.748367	902.183594	955.978821	932.870605	57.044117
218.124802	902.852356	961.551514	931.904724	49.493671
218.501236	903.595398	957.539124	934.282410	56.887081
218.877609	908.499329	960.288391	927.149353	36.011513
219.253983	904.858582	960.065430	931.979004	49.125107
219.630295	903.669617	983.247864	934.579590	38.842239
220.006592	900.846191	991.644043	944.981934	48.608795
220.382889	907.533386	998.554199	947.433899	43.836693
220.759140	914.146301	988.746277	945.947937	42.629551
221.135391	910.877014	994.244690	950.480408	47.504494
221.511581	903.669739	994.913391	942.827209	42.915283
221.887772	899.508789	1005.092957	947.136780	45.109028
222.263931	911.248535	1011.780212	947.062500	35.624557
222.640060	924.994568	1017.947266	965.861084	43.964851
223.016159	926.852112	1022.999817	962.963196	37.557926
223.392212	914.220703	1022.033875	954.046936	36.940044
223.768265	899.434387	1027.532349	943.347351	34.280766
224.144302	892.672913	1027.532349	941.861328	36.473839
224.520294	893.787415	1023.668640	934.951172	31.693386
224.896286	909.242432	1033.179321	940.821045	25.479591
225.272217	919.124695	1041.947144	948.622864	24.016920
225.648148	927.595215	1066.392578	972.399719	32.280514
226.024048	909.019470	1065.798218	963.037537	34.454967
226.399902	903.743958	1077.612305	956.796143	30.512848
226.775772	894.307556	1072.708374	945.056335	28.446495
227.151581	910.431152	1098.194214	959.694031	26.236725
227.527374	903.669617	1127.469360	972.251160	30.644156
227.903137	910.579773	1175.394897	983.247864	27.441065
228.278870	908.127869	1238.329224	994.021790	26.012589
228.654572	914.369324	1308.396729	998.182800	21.270977
229.030273	909.688171	1396.891235	1007.470642	20.070168
229.405930	901.589172	1473.497192	1006.801941	18.396799
229.781555	906.121765	1537.992065	1014.157898	17.097834
230.157181	908.276550	1551.960938	1007.173401	15.364183
230.532761	904.338379	1529.001343	999.668884	15.261110
230.908325	895.570618	1470.748047	990.232422	16.457844
231.283859	892.598572	1427.578125	1000.634766	20.194452
231.659332	899.434387	1381.139038	995.879395	20.021606
232.034821	902.778015	1356.321899	993.501709	20.003288
232.410263	903.298157	1334.996948	977.452332	17.177296
232.785690	899.508728	1312.037476	981.167480	19.794682
233.161087	903.075195	1299.851685	982.653503	20.056206
233.536469	904.264099	1280.235840	982.059021	20.691694
233.911804	907.161865	1289.449463	989.415039	21.516047
234.287140	909.688171	1298.291382	991.867004	21.147234
234.662430	912.363098	1324.446045	1000.040344	21.276602
235.037704	912.734619	1341.981445	1001.600769	20.702808
235.412933	901.514954	1348.000000	1001.823547	22.466284
235.788162	893.044434	1346.365356	995.953674	22.701189
236.163345	900.549011	1348.371460	1003.755371	23.046268
236.538513	908.053650	1364.792358	1008.436523	21.978184
236.913635	908.722351	1371.108032	1018.021484	23.638088
237.288742	901.217773	1377.423828	1016.015381	24.106709
237.663834	898.171326	1372.668457	1022.925537	26.291880
238.038879	899.880188	1375.937866	1017.427185	24.691755
238.413910	898.394226	1389.683716	1014.752258	23.684210
238.788910	899.285828	1402.538208	1002.492371	20.507910
239.163879	903.595398	1417.770142	1007.842102	20.274567
239.538834	908.573669	1425.051880	1021.216614	21.809816
239.913757	914.294983	1469.336304	1053.018188	24.993311
240.288651	916.375488	1509.756836	1069.141968	25.745075
240.663528	908.127869	1562.214478	1071.593872	24.991491
241.038361	897.725403	1609.619751	1073.674438	24.715611
241.413177	897.948425	1708.219604	1099.754517	24.905994
241.787979	899.508789	1819.970825	1120.262085	23.982880
242.162735	903.818359	1958.619629	1143.073120	22.682449
242.537476	896.833801	2076.760986	1146.119507	21.127211
242.912170	919.050293	2205.007568	1167.295776	19.304333
243.286865	924.920227	2262.815186	1176.509277	18.804842
243.661514	924.697327	2259.768799	1169.970581	18.371544
244.036148	912.883118	2186.951904	1159.865356	19.385313
244.410751	914.740784	2082.259521	1147.679810	19.951630
244.785339	916.747009	1999.040405	1145.525024	21.138262
245.159882	913.626221	1949.777710	1151.766479	22.983150
245.534378	916.003906	1986.854858	1170.936646	23.806557
245.908890	913.477600	2072.005859	1198.874390	24.634424
246.283356	907.236145	2235.694580	1243.530273	25.314613
246.657791	888.214661	2451.172607	1288.186279	25.590683
247.032196	896.833801	2719.405029	1336.854614	24.142859
247.406586	900.994690	2953.755859	1355.950317	22.163105
247.780960	911.694336	3110.163086	1360.854370	20.430586
248.155289	900.325989	3134.237305	1352.235229	20.229506
248.529602	897.725403	3042.547852	1319.319214	19.656349
248.903870	901.143372	2861.620850	1288.260620	19.746069
249.278122	904.784180	2650.155273	1246.056641	19.553003
249.652344	897.725525	2462.020752	1220.570801	20.638386
250.026550	896.908203	2311.557861	1197.239746	21.230101
250.400711	916.226868	2211.323242	1195.382202	21.554790
250.774857	924.103027	2137.243408	1201.029175	22.827213
251.148987	927.298035	2105.442139	1201.772095	23.297157
251.523071	907.904968	2105.293701	1209.351074	25.175293
251.897125	926.629211	2160.351807	1221.908325	23.933994
252.271164	916.003906	2223.211914	1229.710083	23.998184
252.645187	912.808899	2283.694092	1232.087769	23.289978
253.019165	892.524231	2297.291748	1215.072510	22.960972
253.393112	920.610657	2290.455566	1219.159180	21.794329
253.767044	925.663269	2211.546143	1204.075562	21.651451
254.140930	928.858337	2130.110352	1204.670044	22.960354
254.514801	910.356934	2040.947266	1198.354370	25.473190
254.888657	911.099915	1997.777344	1190.701172	25.729921
255.262466	914.815125	1962.334961	1182.750610	25.578083
255.636276	923.285645	1973.926147	1195.753784	25.933527
256.010010	924.845947	1996.365601	1229.412842	28.423828
256.383759	921.948181	2038.272339	1248.954468	29.293129
256.757446	910.059753	2080.996338	1266.564087	30.446085
257.131134	906.493225	2157.973877	1279.715698	29.822472
257.504791	902.629456	2259.025391	1316.792847	30.534105
257.878418	903.521057	2365.352783	1344.656372	30.176886
258.252014	911.471436	2515.964600	1396.445313	30.225986
258.625580	915.558105	2692.581787	1461.311523	30.711657
258.999115	906.195984	2939.787109	1530.784668	30.713583
259.372650	900.103210	3214.038330	1600.183472	30.254967
259.746124	892.004150	3535.992188	1656.579102	28.917490
260.119598	899.211426	3831.642578	1705.173218	27.484423
260.493042	898.096924	4030.105225	1723.451538	26.352249
260.866425	903.669617	4079.516602	1700.714966	25.097095
261.239838	902.926575	3933.289063	1631.762085	24.051100
261.613159	903.669678	3662.158203	1556.047485	23.649828
261.986511	904.264160	3344.142578	1495.565063	24.234852
262.359802	912.734619	3084.677490	1457.967896	25.103481
262.733063	908.425049	2920.096924	1433.596680	26.106228
263.106293	913.626221	2820.679688	1424.754517	26.801991
263.479523	911.174255	2762.203857	1430.624634	28.062782
263.852692	923.508545	2723.714600	1427.206665	27.980026
264.225861	917.712952	2684.185791	1412.791992	28.026417
264.598969	921.205139	2666.427490	1415.020996	28.295296
264.972076	919.198975	2672.297607	1427.801147	29.011612
265.345154	926.777832	2719.108154	1463.243530	29.931185
265.718201	915.112305	2767.107422	1487.763306	30.920761
266.091217	927.075012	2861.174561	1532.716431	31.313869
266.464203	927.223633	2945.731201	1566.301392	31.660904
266.837158	928.858215	3059.340088	1592.381714	31.144291
267.210114	906.716125	3136.391846	1596.468262	30.935087
267.583038	899.583069	3201.406982	1594.239258	30.178511
267.955902	908.350769	3235.289063	1597.880005	29.632469
268.328766	910.356934	3226.372803	1603.675781	29.935843
268.701569	906.790344	3227.635986	1611.254517	30.353769
269.074371	891.855652	3230.310791	1611.031616	30.754320
269.447144	898.171326	3265.084229	1627.824097	30.827192
269.819885	903.223877	3318.359375	1652.121094	31.008497
270.192596	916.003906	3419.634033	1719.736450	32.102688
270.565277	926.109070	3577.081299	1808.751099	33.295033
270.937927	917.787170	3756.819580	1883.425293	34.012928
271.310577	914.146301	3973.041016	1938.260742	33.479885
271.683136	899.657410	4175.367188	1957.431030	32.291435
272.055725	901.440674	4344.777344	1969.690918	31.023695
272.428284	899.211609	4382.151855	1946.657104	30.073601
272.800812	897.874023	4332.071777	1916.787231	29.669613
273.173279	907.087585	4185.843750	1883.202515	29.770891
273.545776	906.493164	4063.467529	1863.512085	30.314434
273.918152	916.152527	3939.678955	1849.171753	30.858644
274.290558	911.620117	3880.682861	1839.289429	31.244516
274.662964	917.861511	3820.794678	1831.413452	31.469961
275.035278	904.264099	3775.395752	1832.305054	32.323177
275.407593	909.391052	3769.525391	1859.276855	33.211231
275.779907	911.843018	3831.568359	1893.530396	33.622593
276.152161	917.341370	3925.932861	1907.425171	32.908546
276.524384	915.632385	4015.319092	1924.514771	32.547882
276.896606	914.889404	4067.628174	1938.112183	32.455044
277.268799	916.672668	4114.661621	1956.762085	32.523232
277.640930	909.465271	4123.949219	1945.616821	32.233841
278.013031	907.533447	4136.432617	1945.468140	32.145157
278.385162	907.310547	4116.073730	1944.427856	32.321404
278.757233	907.904968	4103.516602	1966.718750	33.133366
279.129272	901.737793	4085.535156	1981.133423	33.902775
279.501282	893.416016	4097.200684	1999.932129	34.537781
279.873230	895.199219	4162.141113	2025.492188	34.597889
280.245178	897.948425	4276.790039	2061.529053	34.437263
280.617126	901.589172	4452.070313	2136.574951	34.783619
280.988983	896.388000	4626.607422	2197.057129	34.868435
281.360870	908.647949	4806.791504	2282.802490	35.251511
281.732697	906.567444	4952.499512	2317.724854	34.878426
282.104492	914.889465	5077.179199	2340.461426	34.249706
282.476288	904.487122	5152.967773	2328.424561	33.516396
282.848053	912.363098	5184.026855	2313.563965	32.802231
283.219757	905.898743	5212.261230	2319.210938	32.819168
283.591461	912.288757	5168.868652	2314.901367	32.951630
283.963135	910.951355	5133.129395	2320.697021	33.389061
284.334747	920.239258	5094.343262	2343.210693	34.090466
284.706360	913.849121	5159.729492	2392.324951	34.821419
285.077942	921.799561	5298.007324	2463.878174	35.237782
285.449524	926.406311	5453.820313	2506.750977	34.906124
285.821014	924.846008	5558.214844	2503.407227	34.069408
286.192535	913.180420	5681.260254	2508.980225	33.468395
286.563995	900.325989	5760.169922	2510.763428	33.137638
286.935425	893.936035	5813.890625	2511.803467	32.883789
287.306824	898.171326	5744.343750	2468.261963	32.398571
287.678223	898.691406	5625.458984	2425.463623	32.300556
288.049561	913.106140	5498.550293	2410.454590	32.654381
288.420898	906.716125	5361.535645	2414.392578	33.843719
288.792145	913.106140	5330.551758	2429.921631	34.336933
289.163452	907.533447	5360.940918	2464.546875	34.962296
289.534668	914.666504	5490.302246	2522.428711	35.137459
289.905914	908.499329	5628.951172	2579.418945	35.397453
290.277039	915.186584	5819.240234	2648.148926	35.337345
290.648193	923.434265	6011.089844	2696.445801	34.849281
291.019318	919.198914	6128.860840	2695.108154	34.088760
291.390381	909.911133	6132.649902	2643.170654	33.186794
291.761475	900.177490	6028.031250	2591.678711	32.986534
292.132507	903.075195	5926.533203	2578.155518	33.345165
292.503510	901.217712	5821.395020	2583.431396	34.190102
292.874481	930.492981	5818.274902	2623.554932	34.638657
293.245422	937.551758	5825.036621	2666.130371	35.367447
293.616364	944.833313	5943.846191	2733.522705	35.780853
293.987213	922.245300	6109.838379	2782.265625	35.855167
294.358093	922.393982	6327.248535	2842.376221	35.523293
294.728943	906.864746	6551.939453	2910.140625	35.487144
295.099731	897.799805	6726.550781	2960.814697	35.393772
295.470490	896.908203	6901.607910	3020.925781	35.372585
295.841248	914.963684	7013.359375	3059.340088	35.162960
296.211975	909.688171	7130.980957	3123.537842	35.585041
296.582642	902.852356	7278.992188	3191.376221	35.891998
296.953308	896.685242	7435.175781	3227.115967	35.641720
297.323883	903.149597	7541.280762	3220.428711	34.908604
297.694519	910.579895	7536.673340	3154.967773	33.871964
298.065063	921.576660	7448.327637	3104.293701	33.442627
298.435608	922.468323	7245.555176	3020.554443	33.181358
298.806122	921.353821	6955.626465	2926.858643	33.235241
299.176575	913.700623	6618.812500	2817.633545	33.372402
299.547028	918.158691	6387.433594	2746.080078	33.421638
299.917450	912.883240	6240.314453	2713.312500	33.795448
300.287872	902.629456	6169.206543	2699.566650	34.119640
300.658234	894.158936	6097.058594	2694.959961	34.611492
301.028564	902.109375	6028.848145	2687.826660	34.831448
301.398865	910.431335	5983.671875	2668.582275	34.655380
301.769135	913.997864	5929.134277	2645.177002	34.519085
302.139374	909.539551	5905.580078	2629.870361	34.433884
302.509583	899.731628	5867.686035	2609.511475	34.416172
302.879791	899.657410	5801.259277	2582.316650	34.328758
303.249939	898.319885	5683.415527	2542.416260	34.358696
303.620087	902.257874	5572.778809	2523.840576	34.719524
303.990173	894.976257	5505.236816	2516.038818	35.162056
304.360260	899.657410	5487.181641	2527.481201	35.483707
304.730286	901.812195	5474.772949	2523.394775	35.460232
305.100281	906.493164	5451.813477	2518.713867	35.469902
305.470276	903.595398	5439.182129	2512.323486	35.469017
305.840179	902.257996	5457.758301	2519.531006	35.501541
306.210144	900.846191	5479.751465	2531.939453	35.621906
306.579987	906.641785	5514.971191	2561.957764	35.920086
306.949890	906.641846	5544.915527	2594.502197	36.389843
307.319702	919.124695	5629.471191	2641.684326	36.569698
307.689484	918.307373	5705.854980	2670.959717	36.608559
308.059265	923.582825	5815.153809	2721.188721	36.749054
308.429016	915.335266	5939.759277	2760.197510	36.717888
308.798737	906.270325	6100.921875	2803.293213	36.518772
309.168396	897.725525	6236.003906	2832.791260	36.248871
309.538055	894.902039	6307.854980	2832.865479	35.802330
309.907684	891.335449	6332.226563	2827.144287	35.578892
310.277313	894.084656	6350.207520	2826.698486	35.421009
310.646851	899.285828	6375.990723	2845.274414	35.532104
311.016388	916.747009	6373.018066	2854.487549	35.514008
311.385895	940.003723	6321.006348	2829.819092	35.120136
311.755371	935.099792	6255.025879	2800.172119	35.058235
312.124817	923.657043	6190.605469	2767.850342	35.014458
312.494232	912.288757	6134.655762	2746.822998	35.128403
312.863617	912.660339	6056.043457	2738.278076	35.494492
313.232971	918.084412	6013.765137	2742.513428	35.803440
313.602295	909.836731	5988.725098	2760.940430	36.447029
313.971619	916.226807	6035.164063	2796.160156	36.725071
314.340820	909.465332	6053.368652	2820.085205	37.143387
314.710083	917.787292	6120.761230	2828.258789	36.718834
315.079285	925.217468	6143.571777	2795.788330	35.845989
315.448486	932.424805	6164.153809	2768.147705	35.088264
315.817596	930.418640	6057.678223	2716.433350	34.833706
316.186707	919.421875	5878.831543	2664.124023	35.179634
316.555786	913.626221	5678.957031	2596.285889	35.310448
316.924866	906.270264	5527.825684	2548.806152	35.540756
317.293884	904.487000	5444.680176	2524.434814	35.680149
317.662872	910.208313	5422.463867	2537.512207	36.064091
318.031830	905.750183	5412.953125	2550.663818	36.495216
318.400757	910.059753	5470.240723	2580.236328	36.625221
318.769684	905.378662	5513.707520	2586.775146	36.486034
319.138550	902.555176	5573.075684	2582.836914	35.976326
319.507416	904.635559	5574.041504	2564.855713	35.555279
319.876190	900.920471	5539.862793	2540.335938	35.340286
320.244995	926.926453	5502.859375	2549.400635	35.456684
320.613770	923.954407	5431.603027	2529.710693	35.622929
320.982483	927.446594	5394.525879	2524.063721	35.741859
321.351166	909.316711	5323.938477	2519.679688	36.477940
