Jaz Data File
++++++++++++++++++++++++++++++++++++
Date: Fri Jun 04 13:25:54 2021
User: jaz
Dark Spectrum Present: Yes
Reference Spectrum Present: Yes
Processed Spectrum Present: Yes
Spectrometers: JAZA3586
Integration Time (usec): 30000 (JAZA3586)
Spectra Averaged: 10 (JAZA3586)
Boxcar Smoothing: 1 (JAZA3586)
Correct for Electrical Dark: No (JAZA3586)
Strobe/Lamp Enabled: Yes (JAZA3586)
Correct for Detector Non-linearity: No (JAZA3586)
Correct for Stray Light: No (JAZA3586)
Number of Pixels in Processed Spectrum: 2048
>>>>>Begin Processed Spectral Data<<<<<
W	D	R	S	P
191.335022	0.000000	0.000000	0.000000	0.000000
191.713211	311.477020	312.814453	315.117828	272.223602
192.091385	633.207764	632.910583	629.492676	1250.112915
192.469528	961.923035	960.808533	948.548584	1200.038330
192.847641	980.052917	975.892029	955.458740	591.079895
193.225739	992.610046	980.275879	968.387390	196.386627
193.603790	996.250793	976.857910	979.532715	86.207291
193.981842	998.479980	981.761902	988.374817	60.444527
194.359863	1002.269348	993.427429	991.198242	125.211578
194.737854	1008.362244	1007.024719	993.055847	1144.382568
195.115829	1014.380798	1011.705872	997.068176	647.218567
195.493774	1009.105286	1009.996887	994.170410	-1675.061646
195.871704	1005.092957	1001.600769	995.805115	265.960571
196.249603	1006.578918	1002.789551	997.885559	229.414505
196.627457	1010.442688	1001.675049	1003.681152	77.119225
197.005310	1014.232178	1007.322021	998.108459	233.333633
197.383133	1008.956726	999.074402	991.867004	172.932205
197.760910	1008.808105	996.473816	989.860840	153.614563
198.138687	999.743164	995.730774	999.668884	1.851260
198.516449	996.473816	993.798889	999.594543	-116.665909
198.894180	987.260254	990.975403	998.925781	313.998901
199.271866	985.328369	985.774170	987.631775	516.689514
199.649536	986.740173	987.557434	984.065247	-327.303955
200.027191	995.879395	990.380920	983.173645	231.077744
200.404816	1000.931885	998.331360	984.213867	642.870911
200.782410	1001.526367	1013.191895	988.672058	-110.190552
201.159988	993.650208	1033.104980	988.151917	-13.935680
201.537537	989.043457	1034.442505	993.055908	8.838183
201.915070	987.483154	1032.733521	987.334656	-0.328171
202.292557	986.071350	1022.628357	990.381042	11.788964
202.670029	990.752441	1031.767578	992.387207	3.985762
203.047485	987.037292	1032.659180	992.015625	10.912158
203.424911	993.501709	1033.030762	990.158020	-8.458814
203.802292	994.393311	1027.532349	982.950684	-34.529148
204.179688	989.415039	1024.857544	985.551270	-10.901514
204.557037	989.935242	1026.046387	976.486328	-37.243111
204.934357	985.105469	1025.080444	974.034363	-27.695091
205.311661	991.124023	1022.851379	975.297546	-49.882748
205.688934	988.449036	1025.749146	976.189209	-32.868073
206.066177	986.442871	1022.702637	976.635010	-27.048882
206.443390	980.498718	1022.925598	973.440002	-16.637367
206.820587	974.777405	1023.148438	973.588562	-2.457758
207.197769	975.594727	1024.040039	971.730957	-7.975528
207.574921	976.560730	1026.937866	971.210876	-10.619606
207.952042	980.944580	1025.972046	975.148926	-12.871376
208.329147	978.492676	1032.807861	975.966248	-4.651422
208.706223	988.597717	1036.448730	984.733948	-8.074582
209.083267	985.254089	1043.804565	978.195313	-12.055883
209.460297	984.139465	1034.962646	972.696838	-22.514582
209.837280	970.170593	1031.098999	967.272766	-4.756118
210.214264	975.817566	1026.120605	972.028137	-7.533200
210.591217	979.161194	1026.937988	984.659668	11.508671
210.968124	984.585388	1026.640747	979.235535	-12.720980
211.345016	982.727783	1025.823364	980.350098	-5.517238
211.721893	983.470886	1028.572632	976.040527	-16.474659
212.098724	985.774231	1025.526123	975.371826	-26.168325
212.475555	982.579285	1022.702637	970.021973	-31.296766
212.852356	983.768066	1024.411621	963.334778	-50.274364
213.229126	973.960144	1024.040039	968.758850	-10.385992
213.605865	967.867249	1021.365051	972.399719	8.472256
213.982590	961.254333	1026.714966	977.898132	25.425661
214.359283	966.975647	1027.458008	978.566895	19.164675
214.735931	972.696960	1023.297058	979.681458	13.803328
215.112579	980.870300	1020.101990	979.681396	-3.030468
215.489197	983.322205	1018.170105	979.607117	-10.660866
215.865799	985.402649	1020.919373	979.532776	-16.527067
216.242355	981.241699	1023.594238	975.966248	-12.456046
216.618896	989.712341	1033.402222	969.650574	-45.918568
216.995407	986.963074	1032.213379	970.022034	-37.438511
217.371902	984.065247	1022.182617	967.644348	-43.079830
217.748367	973.811523	1014.009216	974.777527	2.403131
218.124802	970.096375	1014.380676	968.164551	-4.362322
218.501236	968.461670	1019.656250	970.839355	4.644409
218.877609	970.616455	1020.027832	962.591797	-16.240507
219.253983	970.616455	1025.080444	959.842590	-19.781630
219.630295	977.303711	1029.390015	958.950928	-35.235332
220.006592	975.148926	1033.030762	963.557678	-20.025707
220.382889	981.464661	1030.132935	967.867249	-27.938965
220.759140	980.052917	1032.659180	965.489563	-27.683689
221.135391	981.464600	1044.770630	971.210876	-16.197071
221.511581	978.269531	1045.067749	978.492493	0.333784
221.887772	975.446106	1039.049316	985.179749	15.303697
222.263931	975.297424	1031.470337	982.653503	13.095421
222.640060	974.182922	1034.219604	982.653503	14.109010
223.016159	972.696960	1033.179321	980.944519	13.636304
223.392212	977.452332	1025.749023	975.966248	-3.076989
223.768265	981.539001	1031.693359	979.309814	-4.444653
224.144302	989.489258	1034.888306	982.059021	-16.366503
224.520294	982.727722	1045.067749	988.300476	8.939287
224.896286	981.687500	1049.674561	980.944519	-1.092827
225.272217	967.718567	1049.377319	986.517151	23.020905
225.648148	967.049866	1046.702271	986.888672	24.906727
226.024048	962.740295	1049.600220	989.266418	30.538967
226.399902	971.210876	1062.603149	982.653503	12.520344
226.775772	978.715515	1067.432861	975.371826	-3.768924
227.151581	985.031189	1067.804443	970.765137	-17.235100
227.527374	986.963074	1075.383301	972.994141	-15.798346
227.903137	980.870300	1083.482300	975.297546	-5.430899
228.278870	976.263428	1092.993042	973.068359	-2.737153
228.654572	967.495789	1100.646118	972.399719	3.683003
229.030273	966.455505	1118.850464	973.811462	4.826903
229.405930	962.814697	1131.407471	981.390381	11.018078
229.781555	968.387390	1125.983521	977.749512	5.940578
230.157181	976.189148	1126.280640	971.359558	-3.217764
230.532761	983.470886	1120.039185	966.752747	-12.241596
230.908325	981.390320	1126.429321	967.049988	-9.887225
231.283859	975.074646	1116.546997	980.721680	3.991616
231.659332	970.839355	1116.992798	983.322266	8.540962
232.034821	967.495667	1112.906128	980.944580	9.248931
232.410263	968.238770	1119.816284	970.021973	1.176430
232.785690	966.604065	1116.621338	969.130371	1.684010
233.161087	967.718689	1106.590454	969.204651	1.070024
233.536469	973.439941	1103.915649	973.662842	0.170837
233.911804	971.953918	1105.698853	972.102478	0.111077
234.287140	975.520508	1118.850342	975.520325	-0.000128
234.662430	964.969421	1115.581055	973.439941	5.624081
235.037704	974.108704	1126.949341	980.052917	3.889158
235.412933	977.749512	1133.710938	981.613220	2.477349
235.788162	982.579285	1146.639648	984.956848	1.449200
236.163345	979.830078	1142.552856	984.362488	2.785357
236.538513	978.715393	1139.209351	981.984863	2.037130
236.913635	976.040527	1136.757324	978.789795	1.710629
237.288742	974.182922	1135.494019	978.938416	2.948026
237.663834	973.291321	1140.843872	982.504883	5.498909
238.038879	970.690735	1144.336060	980.127197	5.434331
238.413910	974.183044	1151.915039	977.600891	1.923034
238.788910	972.473938	1156.224609	978.938416	3.518070
239.163879	979.607117	1156.670532	982.133362	1.426746
239.538834	975.594727	1161.945923	989.340759	7.376412
239.913757	976.634949	1177.995483	990.529602	6.900385
240.288651	977.526611	1202.143677	991.867004	6.384374
240.663528	981.910461	1231.418945	987.260254	2.144132
241.038361	982.504883	1261.140015	988.894958	2.293349
241.413177	973.662781	1291.529907	989.489319	4.978979
241.787979	970.319275	1328.755615	996.473816	7.296844
242.162735	968.907532	1368.581909	1000.486145	7.901085
242.537476	972.325439	1401.869507	1003.383972	7.230581
242.912170	973.885742	1423.194214	1001.600647	6.168347
243.286865	971.879639	1427.800903	991.198242	4.237267
243.661514	971.953918	1417.918823	987.483154	3.482165
244.036148	967.644348	1389.460938	990.529541	5.425389
244.410751	977.675110	1368.433105	998.108459	5.229157
244.785339	986.145691	1359.665527	1000.188904	3.759697
245.159882	993.724548	1374.005859	995.953613	0.586162
245.534378	985.476990	1403.949829	990.306641	1.154113
245.908890	980.721619	1468.964722	993.501709	2.617567
246.283356	972.919861	1549.954712	991.792725	3.270663
246.657791	972.102539	1637.111816	999.222961	4.078202
247.032196	970.393555	1702.275391	997.142517	3.654820
247.406586	970.913574	1749.011719	1006.207458	4.535917
247.780960	971.507996	1759.785645	1008.436523	4.684711
248.155289	974.703125	1744.479370	1015.049500	5.241312
248.529602	971.582336	1691.873047	1007.916321	5.044350
248.903870	975.371826	1628.195435	999.445862	3.687679
249.278122	971.359436	1558.722534	991.867004	3.491463
249.652344	966.232605	1513.769409	996.622375	5.550270
250.026550	965.043762	1483.899780	995.953613	5.957308
250.400711	967.272766	1475.651978	998.108398	6.065479
250.774857	981.687500	1483.825317	984.511047	0.562305
251.148987	989.117859	1504.481445	990.455261	0.259507
251.523071	988.449036	1533.162476	988.523438	0.013659
251.897125	988.077576	1547.948608	999.000061	1.950893
252.271164	980.795959	1562.660522	1003.161072	3.843697
252.645187	985.105469	1557.310669	1005.613037	3.583954
253.019165	978.121094	1539.701172	1002.418030	4.326531
253.393112	981.018799	1521.273926	992.238525	2.076746
253.767044	980.350098	1500.023438	988.077576	1.486988
254.140930	986.814453	1492.964478	985.105469	-0.337644
254.514801	988.820740	1475.800659	989.563660	0.152557
254.888657	984.882629	1478.029663	992.610046	1.566960
255.262466	981.761902	1480.258789	995.507813	2.757472
255.636276	985.625671	1499.726074	997.959900	2.399187
256.010010	990.306641	1524.840454	1004.572815	2.668900
256.383759	994.616211	1549.286133	1007.842102	2.384462
256.757446	987.111633	1576.035156	1007.544922	3.469600
257.131134	983.247864	1614.375122	1006.504700	3.684968
257.504791	974.554504	1676.120728	1010.591309	5.136622
257.878418	977.006409	1749.011719	1015.941101	5.043319
258.252014	980.647278	1824.280396	1019.804871	4.641543
258.625580	985.179871	1940.044067	1018.393066	3.478316
258.999115	982.356384	2078.841553	1025.749023	3.957431
259.372650	984.511169	2245.354004	1041.872681	4.549458
259.746124	984.956970	2378.281494	1055.247192	5.044785
260.119598	984.213928	2463.803955	1057.773560	4.971622
260.493042	979.161316	2470.714111	1051.532104	4.852044
260.866425	973.514343	2407.705322	1049.154419	5.274059
261.239838	974.851746	2301.749756	1041.203979	5.000553
261.613159	969.947754	2179.818848	1029.984375	4.962233
261.986511	973.217041	2069.776367	1021.885437	4.438282
262.359802	972.845520	1987.671875	1027.383789	5.374148
262.733063	979.384094	1954.087280	1030.950317	5.290454
263.106293	977.898132	1944.353638	1027.012207	5.081876
263.479523	983.470764	1934.694336	1022.256836	4.077493
263.852692	981.316101	1917.233276	1023.074158	4.461726
264.225861	974.777344	1897.617188	1024.263062	5.362330
264.598969	968.461609	1901.183594	1023.445740	5.895018
264.972076	971.730957	1923.623169	1019.210449	4.987906
265.345154	979.978577	1972.217163	1024.783203	4.515510
265.718201	979.012634	2028.315796	1029.761353	4.836421
266.091217	972.473938	2087.237549	1034.813965	5.592219
266.464203	980.052917	2144.302002	1045.365112	5.609813
266.837158	981.613281	2194.679443	1041.649780	4.949153
267.210114	984.436768	2234.059814	1045.810913	4.911413
267.583038	979.532715	2244.759521	1035.557007	4.428004
267.955902	974.034363	2246.096924	1029.687134	4.375003
268.328766	978.046692	2255.384766	1024.560181	3.641439
268.701569	977.452332	2269.948242	1029.166992	4.001147
269.074371	976.412109	2285.031494	1037.043091	4.633202
269.447144	973.588562	2310.443115	1045.439331	5.374614
269.819885	973.365662	2391.507080	1045.662231	5.097980
270.192596	975.891907	2503.258545	1051.086304	4.923140
270.565277	975.000244	2650.526611	1051.532227	4.567638
270.937927	971.508118	2775.503906	1061.191528	4.971375
271.310577	973.885803	2887.404053	1065.872437	4.807199
271.683136	973.365723	2952.567383	1070.999390	4.932982
272.055725	968.535950	2978.127686	1074.417358	5.268802
272.428284	965.935364	2954.721924	1074.045898	5.436005
272.800812	968.090149	2906.573975	1072.336792	5.377741
273.173279	971.433777	2817.039063	1061.042847	4.855268
273.545776	970.244934	2764.878662	1058.888062	4.939343
273.918152	972.994141	2715.021484	1058.293579	4.896562
274.290558	975.148926	2716.507568	1065.872559	5.209934
274.662964	984.733887	2715.021729	1070.479370	4.955562
275.035278	980.052917	2730.922607	1073.971558	5.364114
275.407593	978.789734	2767.627686	1072.634155	5.246111
275.779907	973.291321	2817.113281	1068.175903	5.146081
276.152161	974.925964	2869.645264	1056.807739	4.321579
276.524384	980.572998	2921.136963	1058.739502	4.028030
276.896606	983.768066	2960.294922	1060.299805	3.872031
277.268799	974.480164	2977.904541	1064.980957	4.517305
277.640930	967.198486	2981.025391	1062.083130	4.711658
278.013031	957.539124	2983.328369	1061.340088	5.123976
278.385162	963.929199	2989.198486	1064.460815	4.963864
278.757233	966.009583	2986.821045	1061.562866	4.728461
279.129272	969.056091	3013.867188	1063.569214	4.622096
279.501282	968.684570	3054.733398	1068.473022	4.783610
279.873230	974.182922	3131.413818	1073.525635	4.605103
280.245178	977.377991	3228.750244	1079.544312	4.537958
280.617126	977.452332	3361.603516	1092.101440	4.808802
280.988983	973.960022	3487.175049	1097.674194	4.922546
281.360870	975.074524	3596.474609	1102.800903	4.872449
281.732697	977.452332	3668.622314	1103.766846	4.693666
282.104492	972.102539	3716.176514	1107.407837	4.930818
282.476288	966.678467	3728.436279	1105.773071	5.036452
282.848053	966.604187	3722.343506	1100.423340	4.856017
283.219757	976.114807	3725.612549	1098.565796	4.453577
283.591461	981.018799	3703.024414	1100.497559	4.389365
283.963135	977.898132	3719.965820	1094.776245	4.262408
284.334747	969.724792	3770.863037	1094.702026	4.461659
284.706360	972.473938	3865.301758	1100.051636	4.410138
285.077942	975.371765	3956.099609	1115.432373	4.698873
285.449524	980.572998	4051.653076	1124.274536	4.679186
285.821014	978.195251	4086.278076	1123.085571	4.661726
286.192535	979.978516	4123.354980	1116.621216	4.347004
286.563995	983.693665	4116.593262	1117.438599	4.269046
286.935425	981.687500	4096.902832	1113.723511	4.238423
287.306824	982.950684	4027.132813	1113.500488	4.288502
287.678223	970.319275	3951.121826	1110.231323	4.693771
288.049561	970.467834	3905.128174	1110.380005	4.767576
288.420898	959.248230	3879.494141	1114.392212	5.312703
288.792145	966.678467	3912.632813	1117.289917	5.112484
289.163452	963.260559	4010.340820	1130.441528	5.486596
289.534668	970.690735	4155.379395	1134.453979	5.142206
289.905914	970.839355	4269.434082	1138.317749	5.077265
290.277039	976.857910	4380.517090	1138.689087	4.754623
290.648193	977.749512	4434.832031	1138.540527	4.651061
291.019318	972.622559	4435.872559	1137.128784	4.750053
291.390381	971.508057	4373.086426	1124.348755	4.493229
291.761475	973.142761	4291.354004	1123.680054	4.536700
292.132507	974.480164	4249.447266	1127.246582	4.664670
292.503510	977.006531	4236.146484	1135.568481	4.865147
292.874481	972.771240	4280.579590	1141.512817	5.101311
293.245422	985.254089	4358.374512	1140.026733	4.588411
293.616364	985.328430	4495.017090	1145.079346	4.551712
293.987213	984.808289	4636.563965	1147.085571	4.443816
294.358093	977.303711	4781.529297	1147.977051	4.486415
294.728943	971.433777	4901.824707	1152.583862	4.608959
295.099731	973.811523	5032.672363	1156.967773	4.512504
295.470490	983.842346	5141.971191	1163.134766	4.311853
295.841248	992.312805	5262.193359	1166.181274	4.071975
296.211975	992.015625	5379.962891	1168.187378	4.014901
296.582642	980.647278	5501.968262	1182.007690	4.453575
296.953308	974.405945	5553.014160	1188.026123	4.665614
297.323883	969.724792	5538.302246	1177.549438	4.549001
297.694519	975.223145	5427.739746	1162.688965	4.210334
298.065063	974.703125	5306.774902	1147.308228	3.984355
298.435608	983.322266	5130.156738	1147.159668	3.950903
298.806122	977.898132	4940.016113	1142.924438	4.165103
299.176575	978.715393	4739.770996	1139.506470	4.275158
299.547028	970.839355	4614.124512	1134.676880	4.496972
299.917450	969.650574	4554.459473	1133.339355	4.566179
300.287872	976.189148	4560.106934	1134.528320	4.418047
300.658234	977.006409	4548.589844	1133.562378	4.383377
301.028564	981.464661	4541.605469	1141.735718	4.501818
301.398865	977.006531	4489.296387	1140.844116	4.664694
301.769135	978.343994	4446.274902	1143.073120	4.750070
302.139374	972.251160	4400.281250	1135.122681	4.751170
302.509583	971.136658	4376.132813	1127.692505	4.597827
302.879791	975.074646	4318.919922	1120.113525	4.337488
303.249939	973.365662	4257.396973	1110.677124	4.181186
303.620087	971.507996	4186.363770	1114.615112	4.451432
303.990173	973.662842	4170.908691	1124.497437	4.717641
304.360260	981.316101	4175.887207	1128.361206	4.602969
304.730286	977.675232	4167.937012	1126.577759	4.667408
305.100281	972.176819	4154.265137	1118.553101	4.600007
305.470276	972.251038	4153.521973	1117.661499	4.570829
305.840179	972.548340	4181.979980	1120.039185	4.595544
306.210144	974.108704	4228.122559	1126.652222	4.687857
306.579987	970.765076	4262.004395	1133.339355	4.939607
306.949890	980.647278	4321.223145	1138.169067	4.715408
307.319702	980.127136	4391.662598	1138.094727	4.630396
307.689484	984.288086	4503.785645	1140.026611	4.425022
308.059265	977.600830	4619.623047	1144.930542	4.594418
308.429016	975.669006	4733.603027	1144.856323	4.502136
308.798737	974.405823	4803.150879	1142.850220	4.399467
309.168396	978.269592	4843.868652	1141.512695	4.222970
309.538055	982.207703	4866.456543	1149.165894	4.298339
309.907684	982.430603	4867.719727	1145.153442	4.188179
310.277313	979.532776	4884.140625	1144.261841	4.218838
310.646851	977.823914	4860.363770	1136.311401	4.082057
311.016388	977.675293	4862.593262	1143.370239	4.265082
311.385895	981.687561	4804.117188	1147.085449	4.327035
311.755371	977.898132	4762.729980	1147.679810	4.485845
312.124817	976.560730	4695.708984	1138.391968	4.351298
312.494232	976.114929	4626.236328	1131.853394	4.266665
312.863617	979.235657	4609.146484	1137.203247	4.351831
313.232971	977.303711	4625.047363	1146.342407	4.634062
313.602295	978.195313	4715.622070	1148.645752	4.560636
313.971619	985.476990	4784.277832	1147.754150	4.271800
314.340820	985.922852	4829.603027	1144.633423	4.129130
314.710083	980.275818	4819.869141	1148.422852	4.379293
315.079285	973.960022	4747.126465	1146.490967	4.572577
315.448486	976.634949	4665.021973	1139.580933	4.417811
315.817596	984.362366	4544.279785	1127.840942	4.030391
316.186707	988.671936	4444.565918	1118.776001	3.764701
316.555786	988.226135	4334.746094	1121.896729	3.994316
316.924866	983.545105	4269.657715	1123.828491	4.268977
317.293884	972.845520	4267.056641	1120.410645	4.479528
317.662872	974.628845	4275.081543	1117.884399	4.340482
318.031830	971.136536	4332.442871	1115.060913	4.281799
318.400757	978.343933	4352.059082	1127.692383	4.426825
318.769684	968.015930	4399.761719	1131.110229	4.752517
319.138550	968.090149	4392.405273	1127.098022	4.643494
319.507416	968.907471	4370.188477	1117.587280	4.371289
319.876190	972.028137	4303.241699	1115.432495	4.304868
320.244995	973.885742	4228.939453	1120.410767	4.501462
320.613770	980.572998	4190.970215	1122.342651	4.415954
320.982483	980.275696	4206.425293	1125.091797	4.488822
321.351166	984.362488	4251.081543	1127.320923	4.376208
321.719818	970.839355	4306.288574	1132.819214	4.856313
322.088440	969.353333	4420.640625	1131.927612	4.710540
322.457062	968.238770	4586.707031	1134.602417	4.597626
322.825623	970.913635	4768.525879	1131.927612	4.239874
