Jaz Data File
++++++++++++++++++++++++++++++++++++
Date: Fri Jun 04 14:03:51 2021
User: jaz
Dark Spectrum Present: Yes
Reference Spectrum Present: Yes
Processed Spectrum Present: Yes
Spectrometers: JAZA3586
Integration Time (usec): 519000 (JAZA3586)
Spectra Averaged: 10 (JAZA3586)
Boxcar Smoothing: 1 (JAZA3586)
Correct for Electrical Dark: No (JAZA3586)
Strobe/Lamp Enabled: Yes (JAZA3586)
Correct for Detector Non-linearity: No (JAZA3586)
Correct for Stray Light: No (JAZA3586)
Number of Pixels in Processed Spectrum: 2048
>>>>>Begin Processed Spectral Data<<<<<
W	D	R	S	P
191.335022	0.000000	0.000000	0.000000	0.000000
191.713211	267.935577	267.712708	272.096588	-1867.013550
192.091385	537.060059	543.450073	542.781433	89.536171
192.469528	806.704590	817.404236	816.958496	95.834068
192.847641	811.831543	822.010986	824.611633	125.548027
193.225739	843.335876	843.707458	851.434875	2179.599121
193.603790	875.583252	872.536865	872.611145	97.561707
193.981842	902.852356	903.000977	883.236511	-13198.603516
194.359863	902.703796	908.202148	888.363342	-260.813690
194.737854	915.038025	914.592224	901.366272	3066.785400
195.115829	908.276428	906.047363	907.830627	19.999453
195.493774	909.762512	901.737793	903.298157	80.555534
195.871704	903.000977	893.490234	899.360168	38.281010
196.249603	921.353699	915.558105	918.381653	51.281132
196.627457	928.115234	915.409485	913.031799	118.713463
197.005310	926.629211	920.090576	905.527283	322.726807
197.383133	919.570496	905.675842	896.833801	163.636276
197.760910	930.121399	927.075012	922.914063	236.586395
198.138687	927.669434	931.310242	927.892334	6.122278
198.516449	922.096863	932.944885	920.536377	-14.384980
198.894180	908.870911	909.985413	894.530457	-1286.714111
199.271866	910.356934	900.325989	900.474670	98.517769
199.649536	907.161926	890.666687	891.112610	97.296654
200.027191	909.019531	902.778015	899.731689	148.807465
200.404816	893.936035	900.623230	888.586243	-80.000549
200.782410	896.982422	916.672668	907.459167	53.207794
201.159988	890.072266	922.245361	917.415710	84.988541
201.537537	897.279602	942.455750	924.548767	60.361866
201.915070	892.524231	945.576416	915.929688	44.117798
202.292557	880.933044	940.746765	907.681946	44.720345
202.670029	883.607910	936.139954	916.672668	62.942074
203.047485	881.824707	928.189636	913.849121	69.070343
203.424911	885.465515	931.756104	915.186707	64.205688
203.802292	889.775085	937.031677	905.304382	32.861652
204.179688	888.140442	941.935608	908.648010	38.121582
204.557037	902.926697	940.078064	908.573730	15.200069
204.934357	898.617126	937.774658	909.316711	27.324463
205.311661	902.183594	935.842773	910.505554	24.724194
205.688934	904.115479	943.050110	907.161926	7.824519
206.066177	896.759521	925.366150	900.697510	13.766000
206.443390	892.078430	922.691223	901.663513	31.310711
206.820587	870.233459	912.957520	900.251770	70.260902
207.197769	882.790710	927.520813	920.982178	85.382027
207.574921	892.078430	931.384705	914.294922	56.521488
207.952042	900.400391	933.390808	910.728455	31.306253
208.329147	897.428223	944.907715	902.703796	11.111268
208.706223	1063.123413	1120.187866	1084.745483	37.890610
209.083267	1066.838501	1134.528198	1100.794800	50.164650
209.460297	1066.615601	1132.224854	1098.565796	48.697697
209.837280	889.700867	952.858093	922.542542	51.999870
210.214264	879.521301	940.969727	909.539612	48.851227
210.591217	868.598816	922.096741	892.747253	45.139019
210.968124	882.790710	940.523743	905.601563	39.510921
211.345016	894.753418	945.427734	914.740723	39.442673
211.721893	891.335449	951.594910	919.421875	46.609158
212.098724	887.991760	941.638367	909.390930	39.889141
212.475555	889.552185	947.879822	911.397156	37.452179
212.852356	897.799805	956.944763	917.044128	32.537556
213.229126	893.044434	957.390625	916.895569	37.066895
213.605865	879.149841	938.591980	900.920471	36.624908
213.982590	872.313965	927.520813	901.292053	52.490025
214.359283	868.970398	915.038025	891.409851	48.709808
214.735931	874.468750	921.130859	895.199219	44.426773
215.112579	886.431458	934.876770	902.332275	32.822201
215.489197	890.220886	951.223450	911.842957	35.444527
215.865799	887.471680	948.994385	918.233093	50.000099
216.242355	875.583252	942.752930	909.836731	50.995449
216.618896	880.933105	947.805603	920.313477	58.888741
216.995407	882.790588	955.458679	915.186707	44.580940
217.371902	880.561523	951.743469	908.276550	38.935471
217.748367	876.549133	942.901550	903.966858	41.321365
218.124802	879.744202	943.124451	911.248535	49.706863
218.501236	882.344727	942.678711	913.106140	50.985218
218.877609	876.400574	938.889343	905.898743	47.205551
219.253983	870.827881	939.112122	899.508789	42.002235
219.630295	878.703918	945.353516	906.938965	42.363415
220.006592	884.871094	950.703308	905.378601	31.151173
220.382889	887.917480	949.885986	907.607727	31.774603
220.759140	884.053711	948.845703	910.505554	40.825790
221.135391	889.032043	952.709473	908.499329	30.571720
221.511581	879.224121	948.325500	908.276428	42.043022
221.887772	879.818542	952.560852	907.310547	37.793694
222.263931	885.242615	970.987976	919.793396	40.294636
222.640060	899.211487	989.043457	926.703552	30.603876
223.016159	896.982422	999.445862	926.777832	29.079065
223.392212	888.214661	991.718445	920.759277	31.442924
223.768265	878.778259	994.096008	913.626282	30.219131
224.144302	876.400635	991.346924	914.220703	32.902382
224.520294	868.524597	983.842468	910.951355	36.791138
224.896286	879.224121	996.250977	926.183411	40.126934
225.272217	891.261047	1019.581970	933.836609	33.178970
225.648148	909.390930	1053.984009	942.307068	22.764669
226.024048	899.211487	1054.801392	923.136902	15.377229
226.399902	890.815247	1059.185303	908.722229	10.635491
226.775772	870.233459	1063.569214	901.514893	16.179850
227.151581	876.252014	1096.856812	915.409485	17.750053
227.527374	873.651428	1114.615112	925.514648	21.523252
227.903137	880.933105	1156.670532	938.220459	20.776052
228.278870	884.425293	1201.697998	954.046936	21.943787
228.654572	880.041504	1274.217407	962.814697	20.999050
229.030273	879.669922	1355.281616	972.696960	19.559452
229.405930	871.570984	1439.317993	970.913635	17.497698
229.781555	878.926941	1512.432007	982.430603	16.338253
230.157181	874.988831	1530.041626	969.204651	14.382936
230.532761	879.149719	1493.187500	964.375000	13.879485
230.908325	869.787598	1432.556641	948.548523	13.995249
231.283859	882.419128	1387.306274	966.975586	16.747595
231.659332	884.499573	1359.739868	959.471008	15.775479
232.034821	890.369568	1335.368530	960.957092	15.862402
232.410263	877.143616	1308.842407	942.009949	15.025831
232.785690	877.292236	1291.604248	946.170898	16.624828
233.161087	877.217957	1273.697266	946.096497	17.372543
233.536469	880.710205	1254.898682	941.043945	16.123890
233.911804	883.979492	1256.384644	939.334961	14.864313
234.287140	880.041504	1268.941895	935.471252	14.252942
234.662430	888.289063	1307.356323	957.762024	16.577997
235.037704	875.583313	1319.541992	959.619629	18.928860
235.412933	877.292236	1317.238647	967.272888	20.452639
235.788162	860.871399	1310.551392	957.910706	21.579636
236.163345	874.320129	1310.922974	965.638184	20.915588
236.538513	884.276672	1333.436646	977.377930	20.727861
236.913635	889.403564	1336.334473	979.235535	20.099745
237.288742	890.072266	1351.269409	992.089844	22.120167
237.663834	883.830872	1348.371582	985.848450	21.960955
238.038879	882.196228	1352.235229	992.981445	23.569366
238.413910	875.063171	1342.724487	982.802063	23.037804
238.788910	877.812317	1359.814087	987.111633	22.676123
239.163879	878.852600	1371.033813	993.427429	23.278994
239.538834	871.199402	1391.467163	993.055847	23.421871
239.913757	874.691589	1422.005493	1010.294128	24.776009
240.288651	875.583191	1468.816284	1012.151672	23.021049
240.663528	877.217957	1537.992188	1023.891541	22.197231
241.038361	864.883606	1596.245483	1025.229004	21.924221
241.413177	867.187012	1695.959595	1055.990234	22.781065
241.787979	864.586487	1799.686157	1083.853882	23.448559
242.162735	874.691589	1933.282593	1107.184814	21.962515
242.537476	870.010559	2040.575684	1110.082642	20.509073
242.912170	896.982422	2177.292725	1146.565308	19.493937
243.286865	902.703796	2232.945557	1149.240234	18.533207
243.661514	907.161926	2242.307373	1156.521851	18.676611
244.036148	900.920471	2153.664307	1123.680054	17.781734
244.410751	891.335449	2062.271973	1123.754395	19.848980
244.785339	886.802979	1965.901367	1106.144531	20.326372
245.159882	879.669922	1930.087524	1121.971069	23.067125
245.534378	892.449951	1957.653687	1145.302124	23.737448
245.908890	890.146545	2059.968750	1179.852905	24.764990
246.283356	883.310730	2216.747314	1206.379028	24.228247
246.657791	867.558594	2437.946533	1242.713013	23.889282
247.032196	875.508972	2692.582275	1305.127319	23.643425
247.406586	872.165344	2925.892578	1326.749390	22.134586
247.780960	873.279846	3091.513428	1335.591431	20.841429
248.155289	868.598877	3118.410889	1302.303711	19.277382
248.529602	866.444031	3021.817383	1286.180054	19.473936
248.903870	869.936218	2823.354492	1249.697388	19.440853
249.278122	867.261414	2606.167969	1209.202515	19.664145
249.652344	862.877502	2415.655762	1168.261719	19.666956
250.026550	862.877441	2276.263916	1148.348511	20.197666
250.400711	888.363281	2187.249268	1157.116333	20.691042
250.774857	894.456116	2120.154053	1165.958374	22.150827
251.148987	892.152771	2085.157471	1170.490723	23.330835
251.523071	865.923889	2081.813721	1179.035522	25.751644
251.897125	881.601746	2129.887451	1209.499634	26.267857
252.271164	876.920715	2195.273926	1211.505859	25.379021
252.645187	876.177673	2252.263916	1210.540039	24.298069
253.019165	858.419250	2267.793213	1185.425659	23.202244
253.393112	883.162109	2262.220703	1202.218018	23.135777
253.767044	885.539856	2178.407227	1170.639404	22.051723
254.140930	894.010315	2094.073975	1169.747803	22.976904
254.514801	878.926941	1991.015747	1150.354858	24.407034
254.888657	883.905212	1956.464844	1166.998535	26.394182
255.262466	876.326355	1927.041016	1152.806641	26.313547
255.636276	894.753357	1942.941772	1175.766235	26.809385
256.010010	910.282532	1968.873413	1193.821777	26.784594
256.383759	922.765442	2022.148438	1224.731689	27.466883
256.757446	900.474670	2070.965576	1220.124878	27.309071
257.131134	889.626465	2131.893555	1229.041382	27.322218
257.504791	877.515137	2215.632568	1251.629272	27.958244
257.878418	872.982727	2333.551270	1286.551636	28.315611
258.252014	875.508972	2494.342529	1347.479858	29.154999
258.625580	886.951660	2686.563477	1414.723755	29.326996
258.999115	879.967102	2915.416016	1492.741699	30.105131
259.372650	870.456360	3182.980225	1558.350952	29.746485
259.746124	864.809387	3481.454102	1609.248413	28.450136
260.119598	864.140625	3785.575439	1646.399536	26.776531
260.493042	865.775208	3991.319336	1647.588501	25.013670
260.866425	862.357239	4040.284912	1629.458618	24.138414
261.239838	869.341797	3866.639404	1583.836792	23.837973
261.613159	861.985840	3582.802734	1521.496704	24.239443
261.986511	864.289307	3283.214111	1460.568481	24.650587
262.359802	864.809387	3051.538330	1408.556641	24.865782
262.733063	865.924011	2896.989014	1388.717773	25.739883
263.106293	870.084961	2793.559326	1383.070923	26.669758
263.479523	884.573914	2749.126221	1396.816895	27.472708
263.852692	888.066162	2718.142090	1404.098511	28.197319
264.225861	871.125183	2683.591553	1395.330688	28.922220
264.598969	874.320129	2652.458740	1398.377319	29.472235
264.972076	871.645203	2641.833252	1402.463867	29.986570
265.345154	881.750305	2670.811279	1437.757690	31.078167
265.718201	867.112793	2715.021484	1446.005249	31.326897
266.091217	901.143372	2824.469482	1499.354614	31.102953
266.464203	903.372559	2931.019531	1519.119141	30.367544
266.837158	902.332214	3041.804688	1551.737915	30.353544
267.210114	871.199402	3120.639893	1540.815430	29.768116
267.583038	873.502747	3181.122314	1553.521362	29.468401
267.955902	870.604980	3213.147217	1556.716309	29.289177
268.328766	881.155945	3208.168701	1559.836914	29.165331
268.701569	877.292236	3200.143799	1552.332397	29.060839
269.074371	878.406738	3198.955078	1557.607910	29.268995
269.447144	868.598816	3230.385010	1589.335327	30.516586
269.819885	863.769226	3292.725342	1629.681641	31.532576
270.192596	864.958008	3395.708740	1688.157837	32.527889
270.565277	890.146667	3550.852783	1765.804199	32.910721
270.937927	892.747131	3735.123047	1829.630249	32.961266
271.310577	893.118652	3948.966553	1876.663696	32.185669
271.683136	870.307800	4153.447754	1892.490356	31.134298
272.055725	869.862000	4307.625977	1898.657349	29.926296
272.428284	869.638977	4343.291504	1880.156128	29.090910
272.800812	863.694824	4277.235840	1855.710449	29.061190
273.173279	868.301575	4140.890625	1831.562134	29.434204
273.545776	871.570862	4038.352783	1820.862671	29.976545
273.918152	886.654358	3939.901611	1803.549927	30.030176
274.290558	882.493408	3875.852783	1788.466431	30.266096
274.662964	883.756531	3799.544189	1785.791626	30.936241
275.035278	875.211731	3758.529053	1776.726685	31.266588
275.407593	880.190125	3768.559814	1796.342651	31.718674
275.779907	884.276672	3840.707764	1833.716797	32.114399
276.152161	878.852600	3895.394531	1865.666992	32.713432
276.524384	879.372620	3979.207764	1889.443848	32.584675
276.896606	874.914551	4027.950439	1884.391235	32.016022
277.268799	879.818542	4085.237549	1893.530640	31.624949
277.640930	872.611145	4090.439209	1893.604858	31.729280
278.013031	873.428467	4085.832764	1906.087769	32.145996
278.385162	866.889832	4072.904053	1913.592407	32.648098
278.757233	871.868164	4064.358643	1920.502563	32.846909
279.129272	867.855774	4085.906494	1928.973022	32.973911
279.501282	871.050842	4108.940430	1947.474243	33.244595
279.873230	869.490479	4170.463379	1983.436890	33.746002
280.245178	864.958008	4265.570801	2030.841919	34.284523
280.617126	872.016785	4425.172852	2095.188232	34.424927
280.988983	868.004395	4597.332520	2154.630371	34.500210
281.360870	893.193054	4778.631348	2233.168213	34.487103
281.732697	883.830872	4945.663574	2259.991455	33.880287
282.104492	887.100281	5074.355957	2288.152100	33.459904
282.476288	873.502747	5156.831543	2266.456055	32.520348
282.848053	878.555420	5181.648926	2286.963379	32.730125
283.219757	884.351013	5183.135254	2277.378174	32.405140
283.591461	881.601807	5136.992676	2274.703369	32.737335
283.963135	883.087891	5087.804688	2276.114990	33.130104
284.334747	880.710144	5098.132324	2316.238525	34.038052
284.706360	889.552063	5171.543457	2364.238525	34.439270
285.077942	902.034973	5327.802246	2422.194580	34.347935
285.449524	901.366272	5445.943848	2456.968262	34.229847
285.821014	886.654358	5542.166016	2462.243652	33.843525
286.192535	869.564758	5653.693848	2467.147461	33.393387
286.563995	868.598816	5747.167480	2460.608643	32.632721
286.935425	878.704041	5800.293457	2455.184814	32.031944
287.306824	877.440918	5718.857422	2410.900391	31.673777
287.678223	869.193298	5577.756348	2367.136230	31.813164
288.049561	881.601807	5462.587402	2359.334717	32.257969
288.420898	884.722473	5336.421387	2351.606689	32.951115
288.792145	893.861633	5298.526855	2374.269287	33.609997
289.163452	875.731934	5309.598145	2411.420410	34.635426
289.534668	876.846436	5454.265625	2480.447998	35.032879
289.905914	871.570862	5621.372559	2539.815674	35.122410
290.277039	885.837097	5826.002441	2596.805908	34.633835
290.648193	902.926697	6017.480469	2638.043945	33.925095
291.019318	907.459167	6136.587891	2641.833252	33.167553
291.390381	881.676086	6108.353027	2591.678955	32.716831
291.761475	862.580261	6010.421387	2526.515625	32.322971
292.132507	862.283142	5892.057129	2498.503174	32.530685
292.503510	872.016785	5806.534668	2500.732422	33.006577
292.874481	909.465332	5798.955566	2572.508789	34.012615
293.245422	912.734680	5834.175293	2627.864258	34.850155
293.616364	917.787292	5989.542480	2688.049561	34.904331
293.987213	881.676086	6126.482422	2727.652832	35.196281
294.358093	875.806152	6340.845703	2790.884521	35.042351
294.728943	862.357361	6537.450684	2853.595947	35.087326
295.099731	860.202576	6759.987793	2901.075439	34.592323
295.470490	860.128235	6917.806152	2945.582764	34.426636
295.841248	871.422180	7023.242188	2996.479736	34.543560
296.211975	869.787598	7114.931152	3057.185547	35.025581
296.582642	870.530579	7278.471191	3115.884766	35.040188
296.953308	864.363525	7447.732910	3145.010986	34.642559
297.323883	864.214905	7554.729004	3130.001953	33.865665
297.694519	867.632813	7561.192871	3071.600342	32.926685
298.065063	874.245789	7480.798340	3010.746338	32.339111
298.435608	874.394348	7270.520996	2932.431396	32.176304
298.806122	871.347900	6948.642090	2837.026611	32.344639
299.176575	877.366516	6616.136719	2751.429688	32.656181
299.547028	875.657532	6392.040527	2680.767822	32.722717
299.917450	867.484314	6259.707031	2654.539063	33.141338
300.287872	857.899231	6173.070313	2639.975830	33.528114
300.658234	855.149963	6097.652832	2635.443359	33.958847
301.028564	862.728821	6033.306152	2626.824219	34.117962
301.398865	858.345032	5968.812012	2606.614014	34.209576
301.769135	867.558594	5911.450684	2590.489990	34.158768
302.139374	873.874329	5877.642090	2576.520996	34.027294
302.509583	869.193176	5839.673828	2542.044678	33.655731
302.879791	869.861877	5772.207031	2516.335938	33.585438
303.249939	863.471863	5682.449219	2477.921631	33.501915
303.620087	875.508972	5592.691406	2465.215576	33.700340
303.990173	871.719482	5519.429199	2439.581299	33.734074
304.360260	880.561523	5475.664551	2450.652100	34.168777
304.730286	886.208496	5456.123047	2458.008057	34.394508
305.100281	897.354004	5459.986816	2459.791260	34.244202
305.470276	886.282776	5458.724121	2443.593506	34.058628
305.840179	874.022888	5460.581543	2441.215820	34.169254
306.210144	860.797058	5468.680176	2456.893799	34.638393
306.579987	881.750488	5496.767090	2493.599121	34.926170
306.949890	890.815369	5536.221191	2509.574463	34.846451
307.319702	900.326111	5617.062500	2559.505859	35.176434
307.689484	877.812317	5704.368652	2593.016357	35.536812
308.059265	875.508972	5839.971191	2666.799072	36.082256
308.429016	860.054016	5948.229980	2705.510742	36.269516
308.798737	863.917725	6082.568848	2750.760986	36.155766
309.168396	860.202576	6199.150391	2764.581787	35.669559
309.538055	872.462585	6285.712891	2777.138672	35.185440
309.907684	875.434631	6297.155762	2765.621826	34.863232
310.277313	876.846375	6322.566895	2766.736084	34.704124
310.646851	873.131287	6336.981934	2760.048828	34.534573
311.016388	887.323059	6370.492676	2762.278076	34.194733
311.385895	913.700500	6334.529785	2756.779541	33.999947
311.755371	910.505554	6279.322754	2720.073975	33.705158
312.124817	894.456238	6213.639160	2687.157959	33.702576
312.494232	875.880432	6138.296387	2651.566895	33.742802
312.863617	873.279846	6075.064453	2649.932373	34.154675
313.232971	876.697754	6022.087402	2668.062256	34.814945
313.602295	861.911560	6013.021973	2689.758545	35.484524
313.971619	867.409973	6070.234863	2727.875977	35.758770
314.340820	864.289246	6100.625000	2730.476318	35.639175
314.710083	878.852600	6168.463379	2748.977539	35.354679
315.079285	885.539856	6170.543457	2723.863525	34.783775
315.448486	904.041199	6187.484375	2702.613037	34.041660
315.817596	912.065918	6070.086426	2634.997314	33.402958
316.186707	907.904968	5901.642090	2568.793701	33.259434
316.555786	890.072266	5695.525879	2501.178223	33.526615
316.924866	878.481018	5517.720215	2473.537598	34.381859
317.293884	881.304504	5430.042969	2468.410400	34.891125
317.662872	889.552185	5398.835449	2477.921143	35.224422
318.031830	875.583252	5429.448242	2480.447754	35.241810
318.400757	878.852539	5474.996094	2502.812988	35.333111
318.769684	867.112793	5520.470215	2521.760010	35.558136
319.138550	864.586426	5529.832031	2523.840576	35.566277
319.507416	859.905334	5513.335938	2500.212158	35.249413
319.876190	855.521484	5490.599609	2467.890625	34.786236
320.244995	887.025879	5484.209473	2458.751221	34.188873
320.613770	887.694580	5437.770508	2436.163330	34.031712
320.982483	898.171204	5387.839355	2439.804199	34.337353
321.351166	876.623474	5320.148926	2444.708252	35.289204
321.719818	873.651367	5312.198730	2478.887451	36.165798
