Jaz Data File
++++++++++++++++++++++++++++++++++++
Date: Fri Jun 04 11:49:45 2021
User: jaz
Dark Spectrum Present: Yes
Reference Spectrum Present: Yes
Processed Spectrum Present: Yes
Spectrometers: JAZA3586
Integration Time (usec): 40000 (JAZA3586)
Spectra Averaged: 10 (JAZA3586)
Boxcar Smoothing: 1 (JAZA3586)
Correct for Electrical Dark: No (JAZA3586)
Strobe/Lamp Enabled: Yes (JAZA3586)
Correct for Detector Non-linearity: No (JAZA3586)
Correct for Stray Light: No (JAZA3586)
Number of Pixels in Processed Spectrum: 2048
>>>>>Begin Processed Spectral Data<<<<<
W	D	R	S	P
191.335022	0.000000	0.000000	0.000000	0.000000
191.713211	383.699249	385.259644	375.971771	-495.225983
192.091385	766.209656	765.392395	756.624695	1172.815552
192.469528	1150.726196	1154.069946	1129.624268	-631.085693
192.847641	1155.853149	1160.014038	1134.305298	-517.866577
193.225739	1163.877808	1177.029419	1132.596313	-237.852936
193.603790	1172.719727	1178.218262	1143.890381	-524.309570
193.981842	1184.534058	1180.224365	1154.069946	706.874390
194.359863	1191.146973	1181.264648	1162.837524	286.465485
194.737854	1193.598999	1187.060181	1175.171753	281.813080
195.115829	1192.855957	1188.546265	1172.719849	467.228424
195.493774	1186.094360	1186.094360	1171.605347	0.000000
195.871704	1180.595825	1186.094360	1166.849976	-249.991119
196.249603	1184.979858	1194.639160	1174.428833	-109.231758
196.627457	1194.861938	1196.719604	1180.224365	-787.955078
197.005310	1200.954956	1200.731934	1172.794067	12626.929688
197.383133	1193.004517	1199.914673	1163.283325	-430.108826
197.760910	1190.403931	1203.629761	1162.837524	-208.428558
198.138687	1194.193359	1204.744263	1166.478516	-262.677460
198.516449	1199.023071	1197.388306	1173.091309	1586.267944
198.894180	1197.611206	1189.215088	1165.066772	387.612854
199.271866	1198.057007	1184.385498	1159.122437	284.786194
199.649536	1192.632935	1188.546387	1155.630249	905.475403
200.027191	1191.221069	1192.781616	1162.911987	-1814.048828
200.404816	1191.964233	1188.917847	1170.639404	700.004028
200.782410	1188.843628	1194.267578	1179.109863	-179.458954
201.159988	1185.945801	1204.595703	1174.131714	-63.346642
201.537537	1180.075806	1226.812134	1177.846680	-4.769579
201.915070	1179.704224	1230.155762	1173.983032	-11.339974
202.292557	1181.190308	1230.007202	1177.103638	-8.371426
202.670029	1175.989136	1212.248901	1169.004639	-19.262388
203.047485	1171.233765	1209.796997	1159.419678	-30.635624
203.424911	1169.599243	1206.676147	1157.562134	-32.465248
203.802292	1173.165649	1217.524414	1157.116333	-36.180710
204.179688	1182.453491	1212.100220	1152.509399	-101.003021
204.557037	1185.648560	1207.790649	1147.011108	-174.497757
204.934357	1185.574219	1207.344849	1156.818970	-132.082764
205.311661	1177.326660	1210.762817	1167.890137	-28.222511
205.688934	1174.725952	1215.146606	1180.224487	13.603281
206.066177	1177.252319	1201.029175	1173.388550	-16.250128
206.443390	1180.001465	1204.892944	1168.187378	-47.462372
206.820587	1182.304932	1206.973389	1167.072876	-61.747097
207.197769	1183.122192	1214.403687	1171.010986	-38.716839
207.574921	1182.973633	1211.282959	1168.336060	-51.705833
207.952042	1181.487427	1207.419312	1161.351563	-77.649055
208.329147	1178.961304	1210.762817	1151.915039	-85.047096
208.706223	1188.843384	1225.177490	1171.010864	-49.079285
209.083267	1187.431763	1224.360229	1170.119263	-46.881176
209.460297	1178.961304	1223.765869	1169.970703	-20.066259
209.837280	1169.822144	1209.945679	1149.240234	-51.296349
210.214264	1168.558960	1208.162231	1146.936768	-54.596985
210.591217	1167.964478	1212.248901	1147.828491	-45.469681
210.968124	1163.357788	1212.843262	1153.549805	-19.819923
211.345016	1163.952148	1217.004272	1157.487793	-12.184914
211.721893	1156.373291	1216.558472	1155.778809	-0.987755
212.098724	1153.549683	1214.849487	1154.738647	1.939590
212.475555	1153.178223	1217.227173	1138.837769	-22.389835
212.852356	1168.707520	1210.911377	1143.890259	-58.803299
213.229126	1169.376221	1210.391235	1145.673706	-57.789848
213.605865	1171.085083	1205.933105	1159.270996	-33.901741
213.982590	1163.580566	1205.264526	1152.583862	-26.381140
214.359283	1166.701294	1204.075562	1146.416748	-54.274097
214.735931	1167.370117	1203.703979	1145.599487	-59.918293
215.112579	1173.016968	1207.567871	1146.416748	-76.988495
215.489197	1171.976807	1206.156128	1143.890503	-82.173378
215.865799	1169.896362	1202.440918	1140.175171	-91.324615
216.242355	1169.079102	1209.351074	1141.215454	-69.188683
216.618896	1170.044922	1218.787598	1147.531128	-46.189079
216.995407	1166.032593	1227.555298	1151.097656	-24.275488
217.371902	1160.980103	1223.097046	1147.085327	-22.368736
217.748367	1163.134766	1215.295288	1137.723267	-48.717876
218.124802	1166.701416	1221.016602	1138.317627	-52.257557
218.501236	1165.289673	1212.694702	1144.410522	-44.044167
218.877609	1168.113159	1216.781372	1150.354736	-36.488750
219.253983	1169.227661	1202.440918	1146.639526	-68.009392
219.630295	1176.286499	1212.546143	1146.862427	-81.148270
220.006592	1176.880859	1215.443848	1147.308228	-76.686569
220.382889	1178.366821	1219.827759	1149.908813	-68.638123
220.759140	1175.840576	1210.688599	1149.685913	-75.053505
221.135391	1171.902710	1208.013672	1152.360962	-54.115833
221.511581	1165.958374	1219.233398	1158.899536	-13.249807
221.887772	1168.187500	1226.737915	1159.345337	-15.101794
222.263931	1166.032593	1223.171387	1161.945923	-7.152181
222.640060	1173.537109	1216.484253	1159.419678	-32.871643
223.016159	1167.221558	1215.146606	1159.196777	-16.744438
223.392212	1174.354492	1222.502563	1162.986206	-23.611094
223.768265	1177.178101	1217.227051	1161.425781	-39.332664
224.144302	1183.568115	1225.103271	1160.905640	-54.562153
224.520294	1173.462891	1223.840210	1157.859375	-30.973295
224.896286	1162.540283	1232.162109	1162.317505	-0.319983
225.272217	1159.493896	1225.549072	1161.871582	3.599545
225.648148	1169.450562	1230.007324	1159.494019	-16.441669
226.024048	1169.822144	1228.967041	1160.459839	-15.829437
226.399902	1167.592896	1239.220825	1160.534180	-9.854697
226.775772	1159.568237	1235.654175	1155.704468	-5.078165
227.151581	1165.883911	1249.548950	1152.360840	-16.163347
227.527374	1166.329956	1250.069092	1156.596069	-11.624060
227.903137	1171.679565	1254.750122	1157.264893	-17.352325
228.278870	1167.370117	1259.208130	1153.401245	-15.210338
228.654572	1173.314331	1262.848999	1149.983276	-26.058125
229.030273	1171.010864	1275.480469	1147.679932	-22.332747
229.405930	1170.193481	1276.446411	1144.782104	-23.915930
229.781555	1172.794067	1289.895142	1151.692261	-18.020164
230.157181	1173.685669	1294.056152	1156.596313	-14.197297
230.532761	1168.038818	1294.056152	1157.487793	-8.372678
230.908325	1158.676636	1288.334839	1152.732422	-4.584526
231.283859	1158.899536	1286.180054	1151.989380	-5.429076
231.659332	1166.181274	1290.043823	1154.069824	-9.778137
232.034821	1169.376221	1285.882813	1152.360962	-14.604546
232.410263	1171.902466	1278.824097	1151.989380	-18.624001
232.785690	1167.667236	1273.251465	1151.246460	-15.552300
233.161087	1169.598999	1279.938599	1146.045044	-21.346783
233.536469	1167.741577	1279.418579	1145.227905	-20.159632
233.911804	1165.363892	1277.115234	1148.125610	-15.425570
234.287140	1167.667236	1277.040894	1154.515747	-12.024366
234.662430	1173.091431	1286.774536	1151.469238	-19.019707
235.037704	1181.338989	1299.183105	1155.927368	-21.563759
235.412933	1181.264648	1301.040649	1154.367065	-22.456572
235.788162	1165.735474	1298.588745	1155.853149	-7.438525
236.163345	1156.224731	1290.564087	1145.450806	-8.019933
236.538513	1152.212280	1294.204834	1145.450806	-4.761851
236.913635	1155.853149	1301.858032	1147.308228	-5.852490
237.288742	1162.614746	1301.932251	1155.853149	-4.853372
237.663834	1159.791138	1301.635132	1158.379395	-0.995279
238.038879	1169.747681	1302.452515	1156.967651	-9.630417
238.413910	1169.970703	1307.505005	1159.270996	-7.779665
238.788910	1169.747681	1315.083862	1159.716919	-6.901765
239.163879	1164.472290	1323.628662	1165.512451	0.653547
239.538834	1162.391846	1337.969116	1162.020264	-0.211634
239.913757	1165.512573	1340.123901	1160.757080	-2.723474
240.288651	1170.119263	1348.668579	1161.648804	-4.744044
240.663528	1174.874634	1364.346558	1171.010864	-2.039231
241.038361	1180.521606	1400.531860	1180.298706	-0.101314
241.413177	1178.664063	1438.649292	1186.688843	3.086629
241.787979	1176.806641	1472.011230	1176.509277	-0.100731
242.162735	1175.246216	1500.766479	1173.983032	-0.388051
242.537476	1175.246216	1516.369995	1168.930298	-1.851503
242.912170	1173.388550	1528.109863	1172.794067	-0.167591
243.286865	1166.032593	1518.004517	1167.295776	0.358888
243.661514	1168.187378	1513.100586	1168.781738	0.172322
244.036148	1168.187378	1497.571289	1168.930420	0.225585
244.410751	1172.199707	1489.695313	1170.416504	-0.561647
244.785339	1165.883911	1481.521851	1164.695190	-0.376609
245.159882	1165.586792	1497.868530	1159.345337	-1.878362
245.534378	1161.202881	1527.143921	1160.905762	-0.081193
245.908890	1160.979980	1575.589233	1165.809692	1.164883
246.283356	1163.729370	1636.814819	1171.753906	1.696213
246.657791	1163.803589	1706.510620	1177.029419	2.437011
247.032196	1163.580688	1770.411133	1176.657837	2.154992
247.406586	1164.695190	1815.067017	1177.326538	1.942173
247.780960	1168.484619	1828.887207	1180.224487	1.777683
248.155289	1168.261719	1810.311523	1175.097534	1.064686
248.529602	1166.552612	1761.197388	1182.007690	2.599044
248.903870	1161.277222	1706.436401	1177.103760	2.903104
249.278122	1160.979980	1662.226196	1189.066528	5.603343
249.652344	1155.927368	1627.898315	1183.791016	5.903678
250.026550	1164.249268	1600.926392	1184.088257	4.543171
250.400711	1164.620850	1582.425171	1182.824951	4.357088
250.774857	1174.057251	1583.613892	1181.933350	1.923079
251.148987	1168.930298	1596.245483	1175.989136	1.651904
251.523071	1168.113159	1620.468140	1168.856079	0.164234
251.897125	1163.803589	1637.260620	1167.072876	0.690514
252.271164	1168.187378	1657.842407	1167.890259	-0.060679
252.645187	1174.131470	1654.573120	1169.822021	-0.896976
253.019165	1177.475220	1654.647461	1171.679565	-1.214583
253.393112	1178.515503	1638.449341	1170.490845	-1.744742
253.767044	1178.515503	1613.632202	1171.828247	-1.536888
254.140930	1171.828247	1584.951294	1166.404175	-1.312943
254.514801	1163.506348	1572.542603	1166.478394	0.726597
254.888657	1158.305176	1578.041138	1165.066650	1.610888
255.262466	1161.128662	1593.124634	1167.815918	1.547990
255.636276	1172.199707	1599.960571	1167.518677	-1.094310
256.010010	1175.766235	1613.929565	1174.874634	-0.203486
256.383759	1177.326538	1631.762207	1176.955078	-0.081741
256.757446	1170.490723	1667.055786	1186.020020	3.127344
257.131134	1172.125366	1707.179321	1181.561890	1.763658
257.504791	1165.883911	1747.674316	1190.329468	4.201781
257.878418	1167.295776	1800.354980	1195.530762	4.460086
258.252014	1167.072876	1870.570923	1200.286133	4.721159
258.625580	1169.599121	1976.526733	1205.338745	4.429099
258.999115	1173.091431	2103.510010	1204.967163	3.425956
259.372650	1171.902466	2242.010498	1207.567749	3.332868
259.746124	1174.131714	2349.823486	1210.168457	3.065152
260.119598	1175.914917	2406.367920	1219.010376	3.502406
260.493042	1173.388550	2409.562988	1231.196167	4.676332
260.866425	1174.428711	2355.916260	1234.168335	5.056306
261.239838	1168.633179	2268.907959	1226.217896	5.233667
261.613159	1163.803589	2167.633301	1210.911499	4.692819
261.986511	1163.060547	2085.826172	1198.354248	3.824774
262.359802	1165.883911	2037.083374	1188.397705	2.584229
262.733063	1166.478394	2002.978394	1186.911743	2.442720
263.106293	1165.512573	1986.706055	1182.379272	2.053925
263.479523	1158.973877	1971.102417	1186.985962	3.449218
263.852692	1162.614746	1967.461792	1184.756958	2.751108
264.225861	1156.224609	1959.213989	1192.038574	4.460080
264.598969	1162.020386	1958.545288	1194.490601	4.076485
264.972076	1167.221313	1976.600952	1196.570923	3.626186
265.345154	1176.434937	2015.312622	1198.131348	2.586362
265.718201	1177.623901	2060.711670	1196.199463	2.103478
266.091217	1179.630005	2110.791748	1203.852661	2.601337
266.464203	1184.459595	2160.946045	1202.515137	1.849031
266.837158	1180.893066	2207.533936	1210.317017	2.866041
267.210114	1179.184204	2238.740967	1210.317017	2.938286
267.583038	1173.834351	2248.028809	1213.512085	3.693720
267.955902	1178.961304	2261.180420	1204.372925	2.348103
268.328766	1169.896362	2265.935791	1203.258179	3.043852
268.701569	1164.769409	2285.700195	1196.422241	2.823799
269.074371	1159.716797	2302.641357	1201.549194	3.660119
269.447144	1171.307983	2326.418213	1196.199463	2.154901
269.819885	1178.292480	2376.052490	1205.933228	2.307703
270.192596	1181.190308	2465.661377	1216.187012	2.724600
270.565277	1174.725952	2581.648193	1228.298340	3.807772
270.937927	1177.103638	2701.498291	1224.880371	3.134145
271.310577	1177.029419	2780.630615	1226.737915	3.099804
271.683136	1181.041626	2834.797119	1231.864746	3.073194
272.055725	1171.605347	2859.762939	1240.112427	4.058097
272.428284	1170.490723	2848.617432	1235.431274	3.869824
272.800812	1165.140991	2819.936768	1235.282715	4.238694
273.173279	1166.998535	2747.640381	1233.053711	4.179010
273.545776	1162.614624	2709.300049	1236.397339	4.770376
273.918152	1168.781738	2664.718506	1233.128052	4.301406
274.290558	1164.769409	2662.266602	1226.960815	4.153023
274.662964	1163.283325	2652.532715	1224.360229	4.101187
275.035278	1161.277222	2674.303467	1223.245605	4.095658
275.407593	1168.335938	2687.752441	1228.001099	3.926847
275.779907	1176.806519	2724.755127	1231.790405	3.552049
276.152161	1177.252319	2765.770264	1237.066040	3.765379
276.524384	1181.413208	2811.540771	1242.861694	3.769551
276.896606	1173.091309	2844.531250	1243.530273	4.214268
277.268799	1170.416504	2855.007813	1241.672729	4.229882
277.640930	1163.060547	2867.490479	1237.437500	4.363744
278.013031	1170.267944	2871.057373	1231.716187	3.612925
278.385162	1177.846680	2892.381836	1227.332397	2.886247
278.757233	1188.620605	2898.846436	1226.589478	2.220109
279.129272	1188.174805	2925.520752	1229.784424	2.395010
279.501282	1173.834351	2943.799561	1234.242554	3.412960
279.873230	1165.215210	3005.396484	1241.672852	4.154897
280.245178	1166.701294	3088.912842	1245.759399	4.112872
280.617126	1168.558960	3204.676025	1254.304199	4.211214
280.988983	1172.942749	3308.551758	1259.802612	4.067218
281.360870	1172.571167	3404.996338	1270.576538	4.390085
281.732697	1176.063477	3466.370850	1265.152466	3.889827
282.104492	1173.685669	3499.583984	1254.973022	3.494880
282.476288	1169.004761	3511.175049	1251.777954	3.534038
282.848053	1175.023193	3506.791016	1254.378540	3.403227
283.219757	1173.016968	3510.877930	1260.545776	3.743970
283.591461	1173.611450	3487.769775	1259.802612	3.724515
283.963135	1168.336060	3508.722900	1260.768677	3.949459
284.334747	1166.849976	3569.651367	1259.133911	3.840681
284.706360	1167.890259	3659.260498	1262.180298	3.784666
285.077942	1172.422607	3750.504150	1267.901733	3.703495
285.449524	1177.549561	3834.094482	1278.675537	3.806673
285.821014	1179.407104	3860.323486	1276.743652	3.630719
286.192535	1173.537231	3893.759766	1280.681641	3.938810
286.563995	1167.518677	3876.150391	1279.195679	4.123004
286.935425	1163.654907	3864.558838	1282.464966	4.398900
287.306824	1167.592896	3792.113525	1277.412354	4.184363
287.678223	1173.983032	3713.872803	1274.588867	3.961032
288.049561	1180.521606	3666.393555	1269.164673	3.565874
288.420898	1173.165649	3650.344482	1269.684937	3.896339
288.792145	1171.159546	3690.690674	1270.056274	3.925204
289.163452	1166.924194	3781.785889	1277.560913	4.231073
289.534668	1174.205811	3891.233643	1284.322632	4.052841
289.905914	1167.815918	4000.755615	1292.273071	4.393216
290.277039	1171.233765	4079.516357	1300.892212	4.458248
290.648193	1176.732178	4127.144531	1296.954102	4.074750
291.019318	1181.710449	4131.603027	1299.108765	3.979749
291.390381	1175.394653	4094.154297	1286.402954	3.803270
291.761475	1169.376099	4036.569580	1286.551636	4.086768
292.132507	1168.558838	3992.433594	1281.573364	4.002108
292.503510	1171.902466	3973.486328	1288.855103	4.174518
292.874481	1167.147095	4019.182861	1285.585815	4.152779
293.245422	1170.490723	4092.593750	1290.118164	4.093882
293.616364	1173.016968	4219.279785	1295.319336	4.014833
293.987213	1176.880859	4340.690430	1301.857910	3.950208
294.358093	1170.490723	4442.262207	1308.991089	4.233192
294.728943	1168.187378	4547.623535	1308.693726	4.157686
295.099731	1162.094604	4641.765625	1320.879395	4.563213
295.470490	1170.119263	4767.113770	1324.148926	4.282176
295.841248	1162.391724	4860.363770	1329.052856	4.506825
296.211975	1168.261719	4963.718750	1329.201294	4.240321
296.582642	1167.593018	5049.390137	1333.065063	4.262769
296.953308	1180.967529	5088.250000	1333.139404	3.894571
297.323883	1175.097534	5076.881836	1331.950562	4.020033
297.694519	1164.100708	4989.798828	1322.365601	4.136889
298.065063	1152.880981	4884.734863	1322.662720	4.549528
298.435608	1155.035767	4732.785645	1314.638062	4.460968
298.806122	1164.918091	4571.475098	1306.464722	4.155123
299.176575	1170.713745	4409.940918	1296.359497	3.878881
299.547028	1168.187378	4311.712402	1288.780762	3.836247
299.917450	1168.856079	4277.162109	1291.678589	3.951429
300.287872	1163.357666	4286.301270	1298.440063	4.325483
300.658234	1171.159546	4277.533691	1299.405884	4.128490
301.028564	1169.747681	4250.487793	1298.885864	4.191791
301.398865	1174.354370	4208.580566	1296.656738	4.030760
301.769135	1170.342163	4164.370117	1301.114868	4.367785
302.139374	1167.370117	4113.992676	1297.845581	4.427967
302.509583	1163.803467	4074.835205	1289.300781	4.311094
302.879791	1162.465942	4040.061523	1288.557739	4.381845
303.249939	1168.633179	4004.768311	1284.471069	4.084357
303.620087	1177.103638	3962.638672	1278.229614	3.630397
303.990173	1181.636108	3946.960938	1281.721924	3.619315
304.360260	1181.338989	3939.604736	1281.721924	3.639350
304.730286	1180.670288	3938.118408	1288.260620	3.901808
305.100281	1182.081909	3930.836670	1279.492920	3.543823
305.470276	1174.354492	3935.443604	1280.681763	3.850918
305.840179	1164.843750	3955.208008	1281.053223	4.164670
306.210144	1159.345337	3985.375000	1282.910767	4.372404
306.579987	1168.856079	4013.758545	1283.505249	4.029986
306.949890	1173.685791	4058.563232	1284.991211	3.858237
307.319702	1172.942749	4135.986328	1296.953979	4.185266
307.689484	1167.444336	4244.022461	1305.944580	4.501762
308.059265	1169.153320	4352.653320	1310.700073	4.446262
308.429016	1171.605347	4428.813965	1312.854858	4.336520
308.798737	1170.044922	4499.550293	1313.597778	4.311537
309.168396	1164.026367	4535.215332	1324.520142	4.760747
309.538055	1163.952026	4554.236816	1324.074341	4.722976
309.907684	1169.970703	4546.063965	1323.257202	4.540351
310.277313	1170.044922	4559.363770	1321.548218	4.470022
310.646851	1171.679565	4556.911621	1324.668945	4.519318
311.016388	1164.695190	4552.676270	1326.303589	4.770051
311.385895	1174.280151	4495.537598	1330.093018	4.691382
311.755371	1176.732178	4448.355469	1320.805176	4.403716
312.124817	1177.103638	4386.535645	1323.703003	4.567767
312.494232	1167.890015	4343.736816	1313.895142	4.597361
312.863617	1162.465942	4318.771484	1322.737061	5.077807
313.232971	1164.769409	4339.650391	1324.594604	5.034053
313.602295	1168.410278	4408.529297	1337.374634	5.214757
313.971619	1167.890015	4480.825684	1330.390137	4.905019
314.340820	1165.735352	4517.977051	1329.721436	4.891834
314.710083	1172.274048	4519.462891	1321.399536	4.455245
315.079285	1177.400879	4470.200195	1326.897949	4.540121
315.448486	1177.623901	4397.532227	1327.715454	4.661361
315.817596	1173.983032	4278.647949	1331.430542	5.071321
316.186707	1171.456665	4186.958008	1325.040405	5.093141
316.555786	1173.908691	4103.664551	1322.959961	5.087498
316.924866	1172.422729	4052.469971	1317.238647	5.028248
317.293884	1171.308228	4034.043213	1324.000122	5.333777
317.662872	1170.416626	4040.359375	1327.566650	5.475719
318.031830	1170.119263	4074.538330	1333.510864	5.625621
318.400757	1173.834473	4110.575195	1344.359009	5.806592
318.769684	1176.286377	4135.317871	1350.080444	5.873343
