Jaz Data File
++++++++++++++++++++++++++++++++++++
Date: Fri Jun 04 13:25:39 2021
User: jaz
Dark Spectrum Present: Yes
Reference Spectrum Present: Yes
Processed Spectrum Present: Yes
Spectrometers: JAZA3586
Integration Time (usec): 30000 (JAZA3586)
Spectra Averaged: 10 (JAZA3586)
Boxcar Smoothing: 1 (JAZA3586)
Correct for Electrical Dark: No (JAZA3586)
Strobe/Lamp Enabled: Yes (JAZA3586)
Correct for Detector Non-linearity: No (JAZA3586)
Correct for Stray Light: No (JAZA3586)
Number of Pixels in Processed Spectrum: 2048
>>>>>Begin Processed Spectral Data<<<<<
W	D	R	S	P
191.335022	0.000000	0.000000	0.000000	0.000000
191.713211	311.477020	312.814453	314.151886	200.000000
192.091385	633.207764	632.910583	639.003418	-1950.215698
192.469528	961.923035	960.808533	960.882813	93.335159
192.847641	980.052917	975.892029	975.297546	114.287392
193.225739	992.610046	980.275879	979.755676	104.217575
193.603790	996.250793	976.857910	990.975403	27.202715
193.981842	998.479980	981.761902	984.882629	81.333214
194.359863	1002.269348	993.427429	985.179871	193.277924
194.737854	1008.362244	1007.024719	978.195374	2255.425781
195.115829	1014.380798	1011.705872	986.814453	1030.545776
195.493774	1009.105286	1009.996887	984.213806	-2791.771729
195.871704	1005.092957	1001.600769	987.334534	508.518585
196.249603	1006.578918	1002.789551	986.963074	517.654846
196.627457	1010.442688	1001.675049	992.387207	205.933212
197.005310	1014.232178	1007.322021	993.204407	304.302399
197.383133	1008.956726	999.074402	989.860840	193.232742
197.760910	1008.808105	996.473816	984.585388	196.385178
198.138687	999.743164	995.730774	980.424500	481.475220
198.516449	996.473816	993.798889	991.867004	172.221970
198.894180	987.260254	990.975403	993.501648	167.998489
199.271866	985.328369	985.774170	992.684387	1650.068481
199.649536	986.740173	987.557434	981.390381	-654.600464
200.027191	995.879395	990.380920	980.647278	277.024445
200.404816	1000.931885	998.331360	988.969238	460.008911
200.782410	1001.526367	1013.191895	998.702881	-24.203674
201.159988	993.650208	1033.104980	1003.160950	24.105429
201.537537	989.043457	1034.442505	1005.241516	35.679291
201.915070	987.483154	1032.733521	998.182678	23.645164
202.292557	986.071350	1022.628357	996.845276	29.471575
202.670029	990.752441	1031.767578	993.278809	6.159597
203.047485	987.037292	1032.659180	989.563721	5.537755
203.424911	993.501709	1033.030762	985.328430	-20.676638
203.802292	994.393311	1027.532349	983.693665	-32.287136
204.179688	989.415039	1024.857544	986.219971	-9.014792
204.557037	989.935242	1026.046387	987.111633	-7.819216
204.934357	985.105469	1025.080444	988.300476	7.992518
205.311661	991.124023	1022.851379	986.071350	-15.925290
205.688934	988.449036	1025.749146	981.761902	-17.927919
206.066177	986.442871	1022.702637	976.486328	-27.458927
206.443390	980.498718	1022.925598	978.046692	-5.779417
206.820587	974.777405	1023.148438	980.052917	10.906347
207.197769	975.594727	1024.040039	978.864014	6.748407
207.574921	976.560730	1026.937866	980.350098	7.521999
207.952042	980.944580	1025.972046	977.155029	-8.416087
208.329147	978.492676	1032.807861	980.944519	4.514103
208.706223	988.597717	1036.448730	989.192139	1.242234
209.083267	985.254089	1043.804565	992.684387	12.690414
209.460297	984.139465	1034.962646	986.145691	3.947462
209.837280	970.170593	1031.098999	973.365662	5.243972
210.214264	975.817566	1026.120605	970.393494	-10.782792
210.591217	979.161194	1026.937988	971.507996	-16.018652
210.968124	984.585388	1026.640747	966.009583	-44.169891
211.345016	982.727783	1025.823364	972.399719	-23.965483
211.721893	983.470886	1028.572632	966.381165	-37.891487
212.098724	985.774231	1025.526123	968.090149	-44.486137
212.475555	982.579285	1022.702637	965.563904	-42.407677
212.852356	983.768066	1024.411621	980.795898	-7.312766
213.229126	973.960144	1024.040039	985.848450	23.738680
213.605865	967.867249	1021.365051	982.653503	27.638994
213.982590	961.254333	1026.714966	973.662842	18.955681
214.359283	966.975647	1027.458008	968.164490	1.965603
214.735931	972.696960	1023.297058	968.833252	-7.635773
215.112579	980.870300	1020.101990	968.907532	-30.492617
215.489197	983.322205	1018.170105	974.628845	-24.946581
215.865799	985.402649	1020.919373	974.480164	-30.753077
216.242355	981.241699	1023.594238	972.325378	-21.052624
216.618896	989.712341	1033.402222	966.306824	-53.571941
216.995407	986.963074	1032.213379	967.570007	-42.857315
217.371902	984.065247	1022.182617	971.731018	-32.358551
217.748367	973.811523	1014.009216	976.263489	6.099766
218.124802	970.096375	1014.380676	974.554504	10.067066
218.501236	968.461670	1019.656250	974.331543	11.465810
218.877609	970.616455	1020.027832	972.696960	4.210579
219.253983	970.616455	1025.080444	966.901306	-6.821294
219.630295	977.303711	1029.390015	968.313049	-17.261086
220.006592	975.148926	1033.030762	965.192322	-17.201603
220.382889	981.464661	1030.132935	972.771179	-17.862728
220.759140	980.052917	1032.659180	976.412109	-6.920865
221.135391	981.464600	1044.770630	981.613281	0.234862
221.511581	978.269531	1045.067749	975.074524	-4.783072
221.887772	975.446106	1039.049316	971.656738	-5.957825
222.263931	975.297424	1031.470337	969.278992	-10.714119
222.640060	974.182922	1034.219604	980.498718	10.519895
223.016159	972.696960	1033.179321	980.350098	12.653502
223.392212	977.452332	1025.749023	984.139465	13.845945
223.768265	981.539001	1031.693359	981.538879	-0.000243
224.144302	989.489258	1034.888306	977.526550	-26.350128
224.520294	982.727722	1045.067749	965.117981	-28.247889
224.896286	981.687500	1049.674561	965.489563	-23.825029
225.272217	967.718567	1049.377319	966.901306	-1.000824
225.648148	967.049866	1046.702271	977.749512	13.432922
226.024048	962.740295	1049.600220	972.102478	10.778483
226.399902	971.210876	1062.603149	966.158203	-5.528556
226.775772	978.715515	1067.432861	962.368835	-18.425573
227.151581	985.031189	1067.804443	960.882813	-29.174129
227.527374	986.963074	1075.383301	964.003479	-25.966452
227.903137	980.870300	1083.482300	964.597900	-15.858184
228.278870	976.263428	1092.993042	964.746521	-9.866311
228.654572	967.495789	1100.646118	965.638184	-1.395119
229.030273	966.455505	1118.850464	968.684570	1.462689
229.405930	962.814697	1131.407471	975.817688	7.712662
229.781555	968.387390	1125.983521	982.950684	9.240895
230.157181	976.189148	1126.280640	984.362488	5.445572
230.532761	983.470886	1120.039185	985.031067	1.142418
230.908325	981.390320	1126.429321	983.024963	1.127037
231.283859	975.074646	1116.546997	980.350098	3.728963
231.659332	970.839355	1116.992798	981.687500	7.422435
232.034821	967.495667	1112.906128	978.269714	7.409403
232.410263	968.238770	1119.816284	981.836243	8.970640
232.785690	966.604065	1116.621338	980.573059	9.311590
233.161087	967.718689	1106.590454	978.195313	7.544099
233.536469	973.439941	1103.915649	970.839355	-1.993157
233.911804	971.953918	1105.698853	963.186218	-6.555538
234.287140	975.520508	1118.850342	969.056152	-4.510126
234.662430	964.969421	1115.581055	975.446106	6.956092
235.037704	974.108704	1126.949341	976.560730	1.604303
235.412933	977.749512	1133.710938	977.080811	-0.428761
235.788162	982.579285	1146.639648	978.715515	-2.355090
236.163345	979.830078	1142.552856	989.415039	5.890362
236.538513	978.715393	1139.209351	983.693665	3.101844
236.913635	976.040527	1136.757324	981.464661	3.374964
237.288742	974.182922	1135.494019	976.857910	1.658279
237.663834	973.291321	1140.843872	984.882568	6.917977
238.038879	970.690735	1144.336060	987.557434	9.713305
238.413910	974.183044	1151.915039	984.436768	5.769205
238.788910	972.473938	1156.224609	977.675110	2.830559
239.163879	979.607117	1156.670532	977.600891	-1.133055
239.538834	975.594727	1161.945923	978.492493	1.555003
239.913757	976.634949	1177.995483	985.105469	4.206644
240.288651	977.526611	1202.143677	985.922852	3.738024
240.663528	981.910461	1231.418945	989.266418	2.948179
241.038361	982.504883	1261.140015	987.631653	1.839958
241.413177	973.662781	1291.529907	989.266418	4.908855
241.787979	970.319275	1328.755615	989.415039	5.327519
242.162735	968.907532	1368.581909	990.901123	5.502878
242.537476	972.325439	1401.869507	986.071472	3.200145
242.912170	973.885742	1423.194214	985.699890	2.629407
243.286865	971.879639	1427.800903	990.306641	4.041707
243.661514	971.953918	1417.918823	994.096191	4.965026
244.036148	967.644348	1389.460938	992.833008	5.971472
244.410751	977.675110	1368.433105	990.752441	3.346658
244.785339	986.145691	1359.665527	995.284973	2.446800
245.159882	993.724548	1374.005859	994.096130	0.097712
245.534378	985.476990	1403.949829	989.935120	1.065333
245.908890	980.721619	1468.964722	987.631836	1.415323
246.283356	972.919861	1549.954712	998.405762	4.416700
246.657791	972.102539	1637.111816	1006.579041	5.184364
247.032196	970.393555	1702.275391	1012.003113	5.685284
247.406586	970.913574	1749.011719	1011.557312	5.223472
247.780960	971.507996	1759.785645	1012.002991	5.137149
248.155289	974.703125	1744.479370	1009.625427	4.536682
248.529602	971.582336	1691.873047	1006.727539	4.879308
248.903870	975.371826	1628.195435	1003.012390	4.234002
249.278122	971.359436	1558.722534	1000.931946	5.034792
249.652344	966.232605	1513.769409	1007.099060	7.463691
250.026550	965.043762	1483.899780	1006.504639	7.990825
250.400711	967.272766	1475.651978	1007.099060	7.833974
250.774857	981.687500	1483.825317	1002.343750	4.113661
251.148987	989.117859	1504.481445	1000.560486	2.220302
251.523071	988.449036	1533.162476	993.724609	0.968504
251.897125	988.077576	1547.948608	998.034119	1.778364
252.271164	980.795959	1562.660522	1003.904053	3.971387
252.645187	985.105469	1557.310669	1002.863831	3.103495
253.019165	978.121094	1539.701172	998.851501	3.691443
253.393112	981.018799	1521.273926	1001.377747	3.768395
253.767044	980.350098	1500.023438	1006.281738	4.989989
254.140930	986.814453	1492.964478	997.216858	2.055202
254.514801	988.820740	1475.800659	992.684509	0.793415
254.888657	984.882629	1478.029663	988.300598	0.693093
255.262466	981.761902	1480.258789	994.244812	2.504110
255.636276	985.625671	1499.726074	1000.931946	2.977293
256.010010	990.306641	1524.840454	1008.362244	3.377822
256.383759	994.616211	1549.286133	1007.173340	2.263892
256.757446	987.111633	1576.035156	996.845276	1.652786
257.131134	983.247864	1614.375122	991.644104	1.330356
257.504791	974.554504	1676.120728	992.312805	2.531237
257.878418	977.006409	1749.011719	1004.647156	3.580383
258.252014	980.647278	1824.280396	1016.535461	4.254004
258.625580	985.179871	1940.044067	1025.749023	4.248683
258.999115	982.356384	2078.841553	1026.120605	3.991319
259.372650	984.511169	2245.354004	1029.612793	3.577101
259.746124	984.956970	2378.281494	1033.105103	3.455630
260.119598	984.213928	2463.803955	1038.974976	3.701096
260.493042	979.161316	2470.714111	1040.461060	4.109794
260.866425	973.514343	2407.705322	1039.272095	4.585007
261.239838	974.851746	2301.749756	1026.492065	3.891808
261.613159	969.947754	2179.818848	1013.934998	3.635697
261.986511	973.217041	2069.776367	1009.773926	3.333781
262.359802	972.845520	1987.671875	1018.095886	4.458927
262.733063	979.384094	1954.087280	1020.622131	4.230830
263.106293	977.898132	1944.353638	1026.417847	5.020378
263.479523	983.470764	1934.694336	1015.866882	3.405731
263.852692	981.316101	1917.233276	1020.027832	4.136235
264.225861	974.777344	1897.617188	1018.616028	4.750411
264.598969	968.461609	1901.183594	1022.331116	5.775516
264.972076	971.730957	1923.623169	1015.420898	4.589799
265.345154	979.978577	1972.217163	1012.894592	3.317349
265.718201	979.012634	2028.315796	1017.650085	3.682201
266.091217	972.473938	2087.237549	1028.944092	5.065661
266.464203	980.052917	2144.302002	1033.105103	4.556773
266.837158	981.613281	2194.679443	1033.848022	4.306009
267.210114	984.436768	2234.059814	1033.104980	3.894632
267.583038	979.532715	2244.759521	1034.739746	4.363410
267.955902	974.034363	2246.096924	1033.402222	4.667055
268.328766	978.046692	2255.384766	1034.442505	4.415104
268.701569	977.452332	2269.948242	1031.321777	4.167862
269.074371	976.412109	2285.031494	1039.049316	4.786511
269.447144	973.588562	2310.443115	1041.426880	5.074473
269.819885	973.365662	2391.507080	1042.170044	4.851729
270.192596	975.891907	2503.258545	1048.782837	4.772327
270.565277	975.000244	2650.526611	1051.309204	4.554327
270.937927	971.508118	2775.503906	1058.962402	4.847810
271.310577	973.885803	2887.404053	1057.996460	4.395602
271.683136	973.365723	2952.567383	1065.352417	4.647666
272.055725	968.535950	2978.127686	1057.625000	4.433191
272.428284	965.935364	2954.721924	1051.606445	4.307706
272.800812	968.090149	2906.573975	1049.897461	4.220170
273.173279	971.433777	2817.039063	1053.092407	4.424490
273.545776	970.244934	2764.878662	1058.070679	4.893797
273.918152	972.994141	2715.021484	1050.863403	4.470037
274.290558	975.148926	2716.507568	1052.126465	4.420545
274.662964	984.733887	2715.021729	1048.782837	3.701636
275.035278	980.052917	2730.922607	1051.829468	4.099480
275.407593	978.789734	2767.627686	1055.990356	4.315686
275.779907	973.291321	2817.113281	1055.618774	4.465044
276.152161	974.925964	2869.645264	1058.665161	4.419610
276.524384	980.572998	2921.136963	1055.395874	3.855728
276.896606	983.768066	2960.294922	1055.172974	3.612645
277.268799	974.480164	2977.904541	1051.532104	3.846012
277.640930	967.198486	2981.025391	1055.247192	4.372208
278.013031	957.539124	2983.328369	1056.881836	4.903902
278.385162	963.929199	2989.198486	1066.244019	5.051912
278.757233	966.009583	2986.821045	1065.872559	4.941726
279.129272	969.056091	3013.867188	1070.330688	4.952761
279.501282	968.684570	3054.733398	1063.346191	4.537843
279.873230	974.182922	3131.413818	1068.398804	4.367445
280.245178	977.377991	3228.750244	1070.776489	4.148514
280.617126	977.452332	3361.603516	1076.572144	4.157447
280.988983	973.960022	3487.175049	1080.584595	4.242557
281.360870	975.074524	3596.474609	1085.265625	4.203521
281.732697	977.452332	3668.622314	1090.615356	4.204975
282.104492	972.102539	3716.176514	1093.735962	4.432585
282.476288	966.678467	3728.436279	1094.330444	4.622128
282.848053	966.604187	3722.343506	1092.918701	4.583689
283.219757	976.114807	3725.612549	1090.764038	4.169825
283.591461	981.018799	3703.024414	1083.853882	3.777916
283.963135	977.898132	3719.965820	1085.117065	3.910149
284.334747	969.724792	3770.863037	1081.327515	3.984192
284.706360	972.473938	3865.301758	1090.392456	4.076237
285.077942	975.371765	3956.099609	1097.154053	4.085656
285.449524	980.572998	4051.653076	1108.596680	4.168686
285.821014	978.195251	4086.278076	1100.869141	3.946931
286.192535	979.978516	4123.354980	1102.578125	3.900252
286.563995	983.693665	4116.593262	1100.200439	3.718816
286.935425	981.687500	4096.902832	1109.413940	4.100084
287.306824	982.950684	4027.132813	1106.367554	4.054188
287.678223	970.319275	3951.121826	1103.989868	4.484383
288.049561	970.467834	3905.128174	1105.773071	4.610593
288.420898	959.248230	3879.494141	1102.652344	4.910686
288.792145	966.678467	3912.632813	1106.070190	4.731632
289.163452	963.260559	4010.340820	1098.937134	4.452675
289.534668	970.690735	4155.379395	1104.138428	4.190290
289.905914	970.839355	4269.434082	1104.361328	4.047844
290.277039	976.857910	4380.517090	1116.769897	4.110634
290.648193	977.749512	4434.832031	1122.268188	4.180365
291.019318	972.622559	4435.872559	1123.828613	4.366016
291.390381	971.508057	4373.086426	1123.977295	4.482308
291.761475	973.142761	4291.354004	1117.438599	4.348603
292.132507	974.480164	4249.447266	1111.791504	4.192755
292.503510	977.006531	4236.146484	1103.172485	3.871143
292.874481	972.771240	4280.579590	1104.064087	3.969179
293.245422	985.254089	4358.374512	1108.076538	3.641212
293.616364	985.328430	4495.017090	1107.779175	3.488935
293.987213	984.808289	4636.563965	1114.689331	3.556674
294.358093	977.303711	4781.529297	1125.834839	3.904372
294.728943	971.433777	4901.824707	1140.621094	4.304593
295.099731	973.811523	5032.672363	1144.261841	4.199462
295.470490	983.842346	5141.971191	1143.890381	3.849040
295.841248	992.312805	5262.193359	1147.159668	3.626492
296.211975	992.015625	5379.962891	1157.041870	3.760899
296.582642	980.647278	5501.968262	1171.753906	4.226788
296.953308	974.405945	5553.014160	1175.023193	4.381620
297.323883	969.724792	5538.302246	1166.775513	4.313174
297.694519	975.223145	5427.739746	1153.178223	3.996730
298.065063	974.703125	5306.774902	1143.073120	3.886593
298.435608	983.322266	5130.156738	1135.345581	3.666009
298.806122	977.898132	4940.016113	1128.658325	3.805041
299.176575	978.715393	4739.770996	1127.097900	3.945235
299.547028	970.839355	4614.124512	1125.760376	4.252234
299.917450	969.650574	4554.459473	1119.667725	4.184802
300.287872	976.189148	4560.106934	1122.714233	4.088406
300.658234	977.006409	4548.589844	1117.438599	3.931931
301.028564	981.464661	4541.605469	1125.463379	4.044748
301.398865	977.006531	4489.296387	1116.695679	3.977153
301.769135	978.343994	4446.274902	1119.742065	4.077303
302.139374	972.251160	4400.281250	1113.129028	4.109587
302.509583	971.136658	4376.132813	1115.506714	4.239948
302.879791	975.074646	4318.919922	1117.141479	4.248607
303.249939	973.365662	4257.396973	1115.878296	4.339564
303.620087	971.507996	4186.363770	1109.636841	4.296580
303.990173	973.662842	4170.908691	1097.154053	3.862425
304.360260	981.316101	4175.887207	1092.101440	3.467925
304.730286	977.675232	4167.937012	1099.383057	3.814979
305.100281	972.176819	4154.265137	1099.234375	3.992898
305.470276	972.251038	4153.521973	1108.150757	4.271869
305.840179	972.548340	4181.979980	1105.624512	4.146410
306.210144	974.108704	4228.122559	1106.144531	4.057630
306.579987	970.765076	4262.004395	1110.900024	4.257817
306.949890	980.647278	4321.223145	1108.224976	3.819033
307.319702	980.127136	4391.662598	1117.735840	4.033629
307.689484	984.288086	4503.785645	1115.060913	3.715667
308.059265	977.600830	4619.623047	1118.330200	3.864045
308.429016	975.669006	4733.603027	1116.918457	3.758699
308.798737	974.405823	4803.150879	1115.803833	3.693064
309.168396	978.269592	4843.868652	1117.810181	3.609805
309.538055	982.207703	4866.456543	1124.645996	3.667074
309.907684	982.430603	4867.719727	1127.469482	3.733027
310.277313	979.532776	4884.140625	1128.435425	3.813511
310.646851	977.823914	4860.363770	1129.327026	3.902165
311.016388	977.675293	4862.593262	1127.172363	3.848140
311.385895	981.687561	4804.117188	1126.577881	3.790529
311.755371	977.898132	4762.729980	1120.336548	3.763402
312.124817	976.560730	4695.708984	1120.930786	3.881804
312.494232	976.114929	4626.236328	1111.717285	3.715009
312.863617	979.235657	4609.146484	1111.420044	3.641533
313.232971	977.303711	4625.047363	1109.785400	3.631881
313.602295	978.195313	4715.622070	1126.206421	3.960241
313.971619	985.476990	4784.277832	1125.537720	3.686972
314.340820	985.922852	4829.603027	1125.686279	3.636188
314.710083	980.275818	4819.869141	1122.268433	3.698116
315.079285	973.960022	4747.126465	1129.029907	4.109807
315.448486	976.634949	4665.021973	1121.673950	3.932315
315.817596	984.362366	4544.279785	1106.144531	3.420927
316.186707	988.671936	4444.565918	1099.011597	3.192796
316.555786	988.226135	4334.746094	1100.423340	3.352653
316.924866	983.545105	4269.657715	1105.178711	3.701444
317.293884	972.845520	4267.056641	1106.144653	4.046466
317.662872	974.628845	4275.081543	1118.181641	4.349488
318.031830	971.136536	4332.442871	1120.559204	4.445375
318.400757	978.343933	4352.059082	1121.079468	4.230812
318.769684	968.015930	4399.761719	1113.723511	4.245873
319.138550	968.090149	4392.405273	1114.689453	4.281127
319.507416	968.907471	4370.188477	1108.968140	4.117880
319.876190	972.028137	4303.241699	1101.909424	3.898918
320.244995	973.885742	4228.939453	1102.652466	3.955902
320.613770	980.572998	4190.970215	1104.064087	3.846598
320.982483	980.275696	4206.425293	1101.091919	3.744905
321.351166	984.362488	4251.081543	1093.661743	3.345842
321.719818	970.839355	4306.288574	1096.559570	3.769214
322.088440	969.353333	4420.640625	1101.760742	3.836464
322.457062	968.238770	4586.707031	1106.739014	3.827593
322.825623	970.913635	4768.525879	1115.060913	3.795734
