Jaz Data File
++++++++++++++++++++++++++++++++++++
Date: Fri Jun 04 12:01:57 2021
User: jaz
Dark Spectrum Present: Yes
Reference Spectrum Present: Yes
Processed Spectrum Present: Yes
Spectrometers: JAZA3586
Integration Time (usec): 23600 (JAZA3586)
Spectra Averaged: 10 (JAZA3586)
Boxcar Smoothing: 1 (JAZA3586)
Correct for Electrical Dark: No (JAZA3586)
Strobe/Lamp Enabled: Yes (JAZA3586)
Correct for Detector Non-linearity: No (JAZA3586)
Correct for Stray Light: No (JAZA3586)
Number of Pixels in Processed Spectrum: 2048
>>>>>Begin Processed Spectral Data<<<<<
W	D	R	S	P
191.335022	0.000000	0.000000	0.000000	0.000000
191.713211	332.876190	332.950470	344.987549	16305.053711
192.091385	669.244568	678.309509	687.151611	197.541748
192.469528	1008.436523	1024.337280	1032.807861	153.271561
192.847641	1020.176270	1034.219604	1036.745972	117.989792
193.225739	1031.247437	1039.792236	1044.919189	160.000854
193.603790	1047.445435	1044.027466	1051.457764	-117.389282
193.981842	1053.241089	1053.909668	1045.142090	-1211.374878
194.359863	1060.151245	1059.556763	1051.977905	1374.866577
194.737854	1054.578613	1067.209961	1055.247192	5.293015
195.115829	1059.259644	1068.398804	1063.643433	47.967091
195.493774	1058.368042	1066.244019	1062.083130	47.169868
195.871704	1065.798218	1066.169800	1059.705566	-1639.651733
196.249603	1068.398804	1072.708374	1064.386475	-93.102768
196.627457	1071.816772	1069.959106	1055.990234	851.958191
197.005310	1070.330688	1067.209961	1055.321411	480.954437
197.383133	1065.798340	1068.770264	1043.581665	-747.551941
197.760910	1060.671509	1070.182007	1049.600220	-116.411247
198.138687	1054.355713	1072.931274	1050.343384	-21.600042
198.516449	1057.996460	1068.993164	1060.225586	20.270855
198.894180	1062.008789	1072.782715	1064.386475	22.068888
199.271866	1062.751831	1063.940674	1059.036621	-312.506409
199.649536	1057.699219	1058.516602	1056.807495	-109.094978
200.027191	1056.956177	1058.070801	1052.943848	-359.971527
200.404816	1063.494995	1068.324585	1052.720947	-223.084122
200.782410	1061.785889	1072.782715	1046.033691	-143.243118
201.159988	1061.265869	1075.829102	1045.067749	-111.226135
201.537537	1051.086304	1080.807251	1050.566284	-1.749673
201.915070	1049.971802	1089.203613	1053.761230	9.659072
202.292557	1044.324829	1097.153931	1051.309204	13.220696
202.670029	1048.411377	1091.729858	1041.278320	-16.466543
203.047485	1048.337036	1088.237549	1041.501343	-17.131844
203.424911	1046.256714	1081.847656	1040.981079	-14.822970
203.802292	1046.330933	1088.088989	1046.702515	0.889845
204.179688	1045.216431	1085.191162	1045.959351	1.858474
204.557037	1043.656128	1093.364502	1049.377441	11.509758
204.934357	1039.643677	1090.689575	1053.835571	27.802223
205.311661	1042.318604	1090.912598	1058.739502	33.792034
205.688934	1040.312500	1084.893921	1052.275024	26.832981
206.066177	1036.745850	1083.259277	1043.656128	14.856524
206.443390	1029.167114	1081.550293	1034.293823	9.786938
206.820587	1028.498291	1078.132446	1038.157593	19.460999
207.197769	1038.083374	1074.120117	1042.913086	13.402187
207.574921	1039.495117	1074.120117	1046.182251	19.313023
207.952042	1038.603394	1069.587646	1046.999634	27.098412
208.329147	1033.922363	1065.723877	1040.981079	22.196163
208.706223	1047.073975	1073.897095	1044.844849	-8.310465
209.083267	1058.516479	1079.321289	1041.501221	-81.785217
209.460297	1060.745605	1083.705200	1048.411499	-53.720924
209.837280	1047.519653	1081.030273	1046.182251	-3.990981
210.214264	1037.191772	1080.956055	1042.838745	12.903153
210.591217	1033.699463	1083.928101	1040.758179	14.053170
210.968124	1034.962524	1086.008667	1034.739746	-0.436425
211.345016	1036.820190	1089.797974	1040.981079	7.854026
211.721893	1035.259766	1086.231567	1038.454834	6.268306
212.098724	1032.584839	1081.699097	1050.046143	35.552414
212.475555	1038.380493	1079.990112	1053.018188	35.178635
212.852356	1040.758179	1084.151001	1059.110962	42.294514
213.229126	1043.730225	1084.299683	1054.132690	25.641127
213.605865	1037.117310	1084.225464	1048.931519	25.078905
213.982590	1034.814087	1081.773315	1042.095703	15.506251
214.359283	1029.092773	1084.671143	1038.752075	17.379606
214.735931	1026.937866	1086.825928	1035.557007	14.392085
215.112579	1023.668640	1087.048828	1029.761353	9.612961
215.489197	1034.219604	1082.144897	1029.538452	-9.767603
215.865799	1041.947144	1073.302856	1027.086548	-47.393581
216.242355	1040.535278	1072.485474	1027.160767	-41.860500
216.618896	1030.950195	1077.612305	1025.005981	-12.738845
216.995407	1027.532227	1086.157227	1024.783081	-4.689374
217.371902	1035.334106	1093.959106	1029.984253	-9.125549
217.748367	1042.169922	1095.593628	1024.708862	-32.684105
218.124802	1033.996704	1095.667969	1027.829590	-9.999980
218.501236	1036.151489	1094.627808	1029.984253	-10.546554
218.877609	1033.030762	1093.290283	1032.213379	-1.356438
219.253983	1046.628296	1088.906372	1031.321777	-36.204388
219.630295	1043.433105	1087.494751	1028.721191	-33.389389
220.006592	1043.730347	1089.723755	1031.841919	-25.848112
220.382889	1037.934692	1097.897095	1032.584961	-8.921810
220.759140	1038.900635	1103.023926	1034.516846	-6.836501
221.135391	1035.482788	1107.704956	1041.575562	8.436154
221.511581	1040.089478	1107.036255	1042.987305	4.328554
221.887772	1039.346436	1109.191040	1043.135864	5.425514
222.263931	1051.680786	1100.348999	1038.677612	-26.718002
222.640060	1055.395874	1098.862915	1035.705566	-45.299397
223.016159	1053.018188	1099.754517	1040.089478	-27.663086
223.392212	1047.742676	1101.092163	1042.912964	-9.052968
223.768265	1044.399048	1101.537842	1045.290649	1.560414
224.144302	1051.309204	1101.612061	1037.934692	-26.587976
224.520294	1045.810791	1106.887573	1037.637573	-13.381873
224.896286	1043.655884	1108.893921	1035.036987	-13.211459
225.272217	1040.535278	1103.321167	1040.683960	0.236807
225.648148	1041.278320	1103.469727	1040.089478	-1.911587
226.024048	1036.671509	1106.218872	1042.095703	7.799281
226.399902	1034.665405	1110.974243	1036.597290	2.531666
226.775772	1038.231934	1114.243530	1040.238159	2.639368
227.151581	1044.844849	1113.129028	1042.095703	-4.026036
227.527374	1038.306274	1121.450928	1053.686890	18.498623
227.903137	1040.089478	1130.664429	1050.714722	11.730886
228.278870	1036.894531	1151.915161	1050.268921	11.627818
228.654572	1044.250366	1160.682861	1044.919189	0.574430
229.030273	1037.934692	1170.713745	1044.101929	4.644736
229.405930	1039.643677	1175.543335	1046.108032	4.756712
229.781555	1034.293823	1182.304932	1041.352539	4.769044
230.157181	1031.618896	1178.664063	1036.151367	3.082366
230.532761	1029.464233	1168.113159	1038.900635	6.805968
230.908325	1035.185425	1159.865356	1045.216309	8.045307
231.283859	1036.597168	1160.162720	1048.485718	9.621249
231.659332	1038.603394	1159.865479	1045.810913	5.943754
232.034821	1030.504395	1153.475464	1037.340210	5.558881
232.410263	1031.916138	1146.936890	1039.940796	6.976705
232.785690	1026.863647	1142.850098	1035.631348	7.559245
233.161087	1033.179321	1145.450684	1034.145142	0.860255
233.536469	1028.126709	1156.744751	1033.476563	4.159489
233.911804	1029.464233	1166.403931	1036.894531	5.425963
234.287140	1028.275391	1162.688965	1039.569336	8.402385
234.662430	1041.501343	1156.373169	1037.711792	-3.298939
235.037704	1047.296997	1154.887085	1033.699585	-12.638165
235.412933	1051.160645	1174.354370	1033.922363	-13.992824
235.788162	1045.885132	1184.682495	1031.990479	-10.010747
236.163345	1046.330933	1188.769165	1032.733521	-9.546182
236.538513	1045.885132	1182.082031	1030.652954	-11.183939
236.913635	1047.965698	1184.236694	1036.077148	-8.724196
237.288742	1043.284546	1191.890015	1033.550903	-6.549990
237.663834	1052.498047	1201.326416	1037.266113	-10.234563
238.038879	1060.076904	1202.218140	1029.390015	-21.589012
238.413910	1062.083130	1205.115845	1030.132935	-22.337683
238.788910	1046.999634	1204.075562	1031.173218	-10.075647
239.163879	1038.603516	1205.115845	1038.900757	0.178510
239.538834	1041.649780	1206.304565	1051.977905	6.272593
239.913757	1041.649780	1222.056763	1055.470215	7.660698
240.288651	1043.433105	1243.901733	1054.652832	5.596749
240.663528	1033.328003	1266.044067	1044.324707	4.725374
241.038361	1046.108032	1284.025269	1043.433105	-1.124310
241.413177	1041.129761	1313.820679	1044.621948	1.280639
241.787979	1049.377319	1341.981445	1052.572388	1.091942
242.162735	1029.984375	1374.674683	1057.550659	7.997406
242.537476	1035.854248	1396.742554	1054.207031	5.085447
242.912170	1031.693237	1413.683594	1058.962402	7.138705
243.286865	1038.603394	1415.838379	1060.225586	5.731757
243.661514	1038.083374	1396.816895	1063.792114	7.166529
244.036148	1036.448730	1379.950195	1053.463989	4.953475
244.410751	1043.581787	1369.027710	1049.971802	1.963464
244.785339	1043.135864	1368.136108	1047.891235	1.463190
245.159882	1045.959351	1387.231812	1050.714722	1.393424
245.534378	1038.677612	1406.624878	1047.594116	2.423310
245.908890	1037.414551	1460.345703	1049.823120	2.933945
246.283356	1037.488892	1513.174927	1047.445557	2.093117
246.657791	1040.609619	1593.050415	1053.092529	2.259592
247.032196	1042.318604	1644.616577	1053.315430	1.825812
247.406586	1040.089478	1684.591187	1057.996460	2.778423
247.780960	1042.392944	1695.588257	1050.417480	1.228505
248.155289	1040.906860	1689.718262	1056.213257	2.359144
248.529602	1040.163696	1656.876465	1055.915894	2.554219
248.903870	1043.358887	1600.926392	1058.219360	2.665233
249.278122	1033.996704	1551.515015	1051.680664	3.417069
249.652344	1038.380493	1511.094360	1049.228638	2.294865
250.026550	1032.956421	1490.438354	1048.708496	3.443213
250.400711	1045.364990	1467.255859	1046.405273	0.246576
250.774857	1043.953247	1468.890625	1049.303101	1.258975
251.148987	1049.005737	1479.515747	1046.702515	-0.534999
251.523071	1041.947144	1506.859375	1052.275146	2.221495
251.897125	1043.953247	1519.639282	1045.810913	0.390524
252.271164	1042.169922	1524.097290	1049.600220	1.541788
252.645187	1041.426880	1522.388306	1045.364868	0.818774
253.019165	1042.615723	1513.694946	1049.748901	1.514221
253.393112	1039.123657	1494.599243	1057.401978	4.013019
253.767044	1035.557129	1473.497192	1060.002563	5.581913
254.140930	1035.036743	1459.454102	1068.324585	7.843186
254.514801	1036.522949	1451.875122	1059.928345	5.635072
254.888657	1039.717896	1445.559570	1060.671509	5.163002
255.262466	1030.578735	1443.627563	1050.417603	4.803032
255.636276	1034.962524	1466.512695	1051.160522	3.753445
256.010010	1036.077148	1491.404175	1056.510376	4.487594
256.383759	1036.968750	1527.961060	1053.909790	3.450368
256.757446	1029.910034	1558.053711	1057.921997	5.303853
257.131134	1030.801758	1603.229858	1054.652832	4.166650
257.504791	1025.154663	1639.712402	1060.597046	5.767137
257.878418	1029.166992	1687.191895	1055.247192	3.963406
258.252014	1030.652954	1750.720703	1061.265747	4.251377
258.625580	1047.519775	1845.530884	1060.597046	1.638733
258.999115	1048.114136	1967.387329	1072.113892	2.610732
259.372650	1044.844849	2079.658936	1077.315063	3.137782
259.746124	1035.705688	2176.846924	1089.649414	4.727173
260.119598	1032.510620	2233.762695	1080.361694	3.983433
260.493042	1033.476440	2257.316650	1067.730103	2.798867
260.866425	1038.826294	2221.056885	1058.145020	1.634091
261.239838	1034.368164	2145.639648	1066.466919	2.888471
261.613159	1040.981079	2043.324829	1068.027222	2.698290
261.986511	1035.036987	1961.814819	1073.228394	4.120881
262.359802	1045.885132	1899.400391	1057.550659	1.366763
262.733063	1038.752075	1864.849609	1059.185181	2.473449
263.106293	1046.182251	1841.592896	1050.566284	0.551166
263.479523	1036.300049	1828.144165	1058.070679	2.749358
263.852692	1039.197876	1818.782227	1054.355469	1.944317
264.225861	1030.430054	1814.546875	1063.197632	4.178916
264.598969	1028.572510	1811.277344	1069.290405	5.202203
264.972076	1025.600464	1831.487915	1076.423462	6.306464
265.345154	1032.436279	1867.673340	1069.216187	4.403529
265.718201	1041.203979	1914.112305	1068.398804	3.115427
266.091217	1048.560059	1966.272827	1064.683716	1.756939
266.464203	1045.736450	2006.321899	1063.123291	1.810025
266.837158	1038.900635	2048.600342	1063.123413	2.399008
267.210114	1037.637451	2066.804443	1062.231812	2.389735
267.583038	1042.467163	2088.649414	1068.101563	2.450280
267.955902	1049.748901	2101.132568	1066.615601	1.604238
268.328766	1043.953247	2119.633545	1070.925171	2.507429
268.701569	1040.238159	2127.435547	1067.804443	2.535536
269.074371	1041.872803	2149.652100	1068.027222	2.360977
269.447144	1048.039917	2176.921143	1071.742432	2.099647
269.819885	1052.943848	2236.809326	1075.308960	1.889160
270.192596	1049.600220	2309.477295	1082.367798	2.600855
270.565277	1044.993530	2418.330811	1077.686646	2.380560
270.937927	1044.176147	2520.273926	1085.042603	2.768547
271.310577	1037.860352	2609.363037	1089.500854	3.286059
271.683136	1040.386597	2676.086670	1097.376953	3.484157
272.055725	1038.454956	2691.987305	1096.931030	3.536434
272.428284	1044.250488	2677.870117	1097.005371	3.229325
272.800812	1050.491821	2610.105957	1086.082886	2.282043
273.173279	1051.086304	2557.648438	1076.423462	1.681786
273.545776	1051.606445	2520.645752	1072.262695	1.406106
273.918152	1041.352661	2505.116455	1071.593872	2.065990
274.290558	1039.792358	2496.125488	1076.795166	2.540820
274.662964	1034.888306	2479.258545	1067.507202	2.258347
275.035278	1037.340210	2478.961426	1075.457642	2.644067
275.407593	1041.055298	2495.976807	1081.476074	2.778210
275.779907	1046.256470	2541.078857	1095.444946	3.290590
276.152161	1052.275146	2595.468506	1097.599854	2.937073
276.524384	1049.228882	2642.799072	1096.262329	2.951451
276.896606	1049.005737	2662.861084	1091.952759	2.661144
277.268799	1040.609497	2668.062012	1096.039429	3.405932
277.640930	1039.643677	2674.006104	1085.934204	2.832329
278.013031	1041.055420	2686.712158	1087.866089	2.844498
278.385162	1041.501343	2685.746094	1082.070557	2.467346
278.757233	1039.940918	2688.346680	1091.432739	3.123735
279.129272	1030.653076	2707.962646	1084.076660	3.185076
279.501282	1029.166992	2754.401611	1083.036499	3.122445
279.873230	1024.857422	2820.977295	1082.367798	3.201923
280.245178	1031.544678	2899.589600	1094.107544	3.349109
280.617126	1031.098755	3000.195313	1103.321167	3.667794
280.988983	1034.665405	3104.590820	1115.803955	3.919878
281.360870	1033.848022	3212.032227	1116.695679	3.803519
281.732697	1033.848022	3280.316406	1115.209473	3.621749
282.104492	1035.779907	3309.517334	1109.859741	3.258065
282.476288	1035.259888	3317.616211	1112.163086	3.369465
282.848053	1037.043091	3302.235596	1115.432373	3.460602
283.219757	1032.361938	3302.532959	1116.398315	3.701764
283.591461	1034.591064	3273.034912	1109.191040	3.332671
283.963135	1040.535278	3293.171143	1107.927856	2.991721
284.334747	1051.234863	3342.582275	1109.413940	2.539077
284.706360	1043.358887	3414.135986	1114.838013	3.015008
285.077942	1035.185425	3507.237061	1114.540894	3.210105
285.449524	1030.504395	3572.846436	1111.420044	3.182721
285.821014	1039.494995	3608.883545	1121.525269	3.192599
286.192535	1044.473267	3647.223389	1130.367188	3.300122
286.563995	1038.826416	3638.307373	1139.358032	3.867373
286.935425	1037.711792	3633.254639	1133.933960	3.707208
287.306824	1032.510620	3557.019775	1132.447754	3.958676
287.678223	1039.420776	3493.416748	1122.119751	3.369972
288.049561	1039.940918	3447.125977	1117.438599	3.219432
288.420898	1044.844849	3433.825439	1106.739014	2.590819
288.792145	1040.981079	3459.682861	1115.135254	3.065867
289.163452	1035.259766	3535.843750	1116.844238	3.262617
289.534668	1031.990601	3649.823975	1122.119751	3.442891
289.905914	1027.309448	3771.383545	1121.079468	3.417182
290.277039	1035.779907	3861.215088	1127.246582	3.237260
290.648193	1039.123535	3889.301758	1133.487915	3.310824
291.019318	1049.823120	3887.518311	1134.008179	2.966670
291.390381	1045.810791	3833.871826	1133.933838	3.160729
291.761475	1048.931519	3776.138672	1136.385864	3.206737
292.132507	1043.507446	3726.653076	1134.156738	3.378471
292.503510	1043.953125	3729.625000	1130.664551	3.228668
292.874481	1042.318481	3774.726807	1128.806885	3.165281
293.245422	1043.284546	3854.379150	1128.807007	3.042319
293.616364	1032.362183	3959.146240	1137.648926	3.597353
293.987213	1029.687134	4076.841553	1144.633423	3.772250
294.358093	1030.801636	4187.701172	1145.970825	3.648174
294.728943	1046.108032	4299.229004	1135.345581	2.743136
295.099731	1049.154419	4392.256348	1129.029907	2.389263
295.470490	1050.269043	4482.460449	1131.853394	2.377034
295.841248	1039.346313	4557.431641	1150.429077	3.157478
296.211975	1040.906860	4656.551758	1156.596191	3.199687
296.582642	1034.962769	4767.262695	1165.661011	3.501815
296.953308	1040.832520	4819.571777	1163.952148	3.258220
297.323883	1036.077271	4811.621582	1160.236938	3.288523
297.694519	1039.718018	4707.003418	1155.630127	3.160706
298.065063	1040.535278	4593.543457	1145.227661	2.946584
298.435608	1037.563232	4461.878906	1142.552856	3.066003
298.806122	1036.745972	4307.403320	1139.506470	3.141891
299.176575	1038.380493	4158.352051	1144.559082	3.403191
299.547028	1043.061523	4058.489014	1135.865601	3.077642
299.917450	1043.135864	4026.687500	1125.091797	2.746925
300.287872	1038.529175	4027.356201	1116.992798	2.625231
300.658234	1032.807739	4006.179932	1118.776001	2.891272
301.028564	1031.916138	3978.985107	1122.193970	3.063309
301.398865	1032.733521	3939.381592	1122.119629	3.075230
301.769135	1035.928589	3901.487061	1125.314819	3.119330
302.139374	1032.213379	3858.911865	1129.549927	3.443471
302.509583	1028.126831	3827.035889	1130.515869	3.658176
302.879791	1024.708862	3779.333740	1128.658325	3.773634
303.249939	1030.578735	3754.145264	1123.902954	3.426545
303.620087	1030.504395	3714.541748	1118.107300	3.263848
303.990173	1036.745850	3713.650146	1121.302368	3.158743
304.360260	1036.448608	3702.207275	1125.314697	3.333613
304.730286	1043.581665	3699.160889	1130.664429	3.279238
305.100281	1044.622070	3683.780273	1124.497314	3.026542
305.470276	1050.789185	3688.832764	1121.896729	2.695465
305.840179	1045.736572	3707.780273	1116.026855	2.640463
306.210144	1037.860474	3729.847900	1117.661499	2.964391
306.579987	1026.789429	3758.677490	1117.438599	3.318187
306.949890	1034.516724	3786.243408	1118.850220	3.064749
307.319702	1038.603394	3849.772461	1122.491089	2.984086
307.689484	1046.628052	3937.152588	1124.125854	2.681098
308.059265	1039.792358	4054.105469	1132.967896	3.091104
308.429016	1047.074097	4150.252930	1128.807007	2.633845
308.798737	1047.891235	4218.908691	1132.670776	2.673575
309.168396	1053.984009	4255.019531	1132.967896	2.467448
309.538055	1050.789063	4263.415527	1134.825562	2.615819
309.907684	1041.203979	4255.019531	1130.664551	2.783625
310.277313	1037.117432	4277.161621	1132.224976	2.935378
310.646851	1033.402344	4276.566895	1132.819336	3.065432
311.016388	1038.826416	4261.706543	1130.590210	2.847260
311.385895	1033.996704	4211.329590	1123.085571	2.803888
311.755371	1040.386719	4171.577637	1126.131958	2.738423
312.124817	1037.191772	4123.280762	1131.184570	3.045693
312.494232	1040.906860	4063.318359	1133.859497	3.075446
312.863617	1035.928589	4037.015625	1133.190796	3.240899
313.232971	1039.866577	4060.346436	1126.206299	2.858477
313.602295	1039.272217	4130.190918	1128.138184	2.875067
313.971619	1034.293945	4208.654785	1126.280640	2.897802
314.340820	1031.693359	4238.152344	1139.060669	3.348470
314.710083	1023.519958	4234.660156	1139.506470	3.612004
315.079285	1030.578735	4169.720215	1145.970825	3.675912
315.448486	1035.111206	4113.175781	1135.196899	3.251579
315.817596	1048.114258	4015.913330	1133.785278	2.886685
316.186707	1042.541626	3934.700439	1117.290039	2.584520
316.555786	1044.473511	3848.583740	1115.729736	2.541135
316.924866	1041.278320	3794.491455	1101.909302	2.202190
317.293884	1050.714844	3779.556396	1108.522339	2.118390
317.662872	1048.782837	3791.370361	1114.020630	2.378695
318.031830	1048.485596	3829.933594	1118.924683	2.532461
318.400757	1042.690063	3850.812744	1127.098022	3.005850
318.769684	1039.792114	3885.438232	1124.274536	2.968831
319.138550	1042.615723	3881.574219	1131.184570	3.119766
319.507416	1055.172852	3854.528076	1120.856567	2.346387
