Jaz Data File
++++++++++++++++++++++++++++++++++++
Date: Fri Jun 04 13:25:44 2021
User: jaz
Dark Spectrum Present: Yes
Reference Spectrum Present: Yes
Processed Spectrum Present: Yes
Spectrometers: JAZA3586
Integration Time (usec): 30000 (JAZA3586)
Spectra Averaged: 10 (JAZA3586)
Boxcar Smoothing: 1 (JAZA3586)
Correct for Electrical Dark: No (JAZA3586)
Strobe/Lamp Enabled: Yes (JAZA3586)
Correct for Detector Non-linearity: No (JAZA3586)
Correct for Stray Light: No (JAZA3586)
Number of Pixels in Processed Spectrum: 2048
>>>>>Begin Processed Spectral Data<<<<<
W	D	R	S	P
191.335022	0.000000	0.000000	0.000000	0.000000
191.713211	311.477020	312.814453	321.285004	733.343994
192.091385	633.207764	632.910583	645.170532	-4025.426270
192.469528	961.923035	960.808533	977.155090	-1366.714111
192.847641	980.052917	975.892029	981.613220	-37.499268
193.225739	992.610046	980.275879	982.281921	83.735893
193.603790	996.250793	976.857910	979.755615	85.057892
193.981842	998.479980	981.761902	991.346924	42.666725
194.359863	1002.269348	993.427429	995.656494	74.789803
194.737854	1008.362244	1007.024719	1000.486145	588.856445
195.115829	1014.380798	1011.705872	996.696777	661.103027
195.493774	1009.105286	1009.996887	994.021790	-1691.730591
195.871704	1005.092957	1001.600769	990.158020	427.667084
196.249603	1006.578918	1002.789551	985.625671	552.948364
196.627457	1010.442688	1001.675049	988.597717	249.154541
197.005310	1014.232178	1007.322021	986.888733	395.699371
197.383133	1008.956726	999.074402	995.210632	139.097778
197.760910	1008.808105	996.473816	999.891785	72.288887
198.138687	999.743164	995.730774	1001.452148	-42.592678
198.516449	996.473816	993.798889	995.210693	47.220829
198.894180	987.260254	990.975403	991.272644	108.000786
199.271866	985.328369	985.774170	991.346863	1350.041016
199.649536	986.740173	987.557434	991.569824	590.955933
200.027191	995.879395	990.380920	996.399414	-9.457524
200.404816	1000.931885	998.331360	993.278809	294.289673
200.782410	1001.526367	1013.191895	991.867004	-82.802628
201.159988	993.650208	1033.104980	990.158020	-8.851115
201.537537	989.043457	1034.442505	992.312805	7.201358
201.915070	987.483154	1032.733521	990.678223	7.060867
202.292557	986.071350	1022.628357	989.043457	8.130061
202.670029	990.752441	1031.767578	983.545105	-17.572382
203.047485	987.037292	1032.659180	983.619385	-7.491816
203.424911	993.501709	1033.030762	981.093079	-31.391165
203.802292	994.393311	1027.532349	985.477051	-26.905609
204.179688	989.415039	1024.857544	982.802063	-18.658319
204.557037	989.935242	1026.046387	981.761902	-22.633842
204.934357	985.105469	1025.080444	985.625671	1.301321
205.311661	991.124023	1022.851379	986.442932	-14.754117
205.688934	988.449036	1025.749146	997.216797	23.505993
206.066177	986.442871	1022.702637	985.625549	-2.254074
206.443390	980.498718	1022.925598	983.322205	6.654947
206.820587	974.777405	1023.148438	964.152039	-21.966383
207.197769	975.594727	1024.040039	971.879578	-7.668748
207.574921	976.560730	1026.937866	974.034363	-5.014908
207.952042	980.944580	1025.972046	978.120911	-6.270993
208.329147	978.492676	1032.807861	976.709229	-3.283515
208.706223	988.597717	1036.448730	985.402649	-6.677117
209.083267	985.254089	1043.804565	991.792664	11.167415
209.460297	984.139465	1034.962646	990.975403	13.450432
209.837280	970.170593	1031.098999	984.288086	23.170626
210.214264	975.817566	1026.120605	985.254089	18.759350
210.591217	979.161194	1026.937988	984.956787	12.130561
210.968124	984.585388	1026.640747	977.675110	-16.431385
211.345016	982.727783	1025.823364	972.399719	-23.965483
211.721893	983.470886	1028.572632	971.582336	-26.359400
212.098724	985.774231	1025.526123	979.384216	-16.074743
212.475555	982.579285	1022.702637	974.851746	-19.259455
212.852356	983.768066	1024.411621	971.656677	-29.799040
213.229126	973.960144	1024.040039	962.963196	-21.958809
213.605865	967.867249	1021.365051	968.907471	1.944420
213.982590	961.254333	1026.714966	970.913635	14.755895
214.359283	966.975647	1027.458008	976.560730	15.847733
214.735931	972.696960	1023.297058	972.548340	-0.293716
215.112579	980.870300	1020.101990	967.421448	-34.280586
215.489197	983.322205	1018.170105	960.808533	-64.605530
215.865799	985.402649	1020.919373	970.393555	-42.259232
216.242355	981.241699	1023.594238	976.189148	-11.929749
216.618896	989.712341	1033.402222	984.511047	-11.905031
216.995407	986.963074	1032.213379	978.715393	-18.226795
217.371902	984.065247	1022.182617	975.297546	-23.001850
217.748367	973.811523	1014.009216	972.028259	-4.436235
218.124802	970.096375	1014.380676	964.969482	-11.577223
218.501236	968.461670	1019.656250	967.495789	-1.886687
218.877609	970.616455	1020.027832	967.124207	-7.067701
219.253983	970.616455	1025.080444	968.313049	-4.229227
219.630295	977.303711	1029.390015	968.684570	-16.547806
220.006592	975.148926	1033.030762	968.684570	-11.168194
220.382889	981.464661	1030.132935	970.096375	-23.358721
220.759140	980.052917	1032.659180	971.062256	-17.090477
221.135391	981.464600	1044.770630	968.610291	-20.305031
221.511581	978.269531	1045.067749	972.771240	-8.231194
221.887772	975.446106	1039.049316	974.554504	-1.401819
222.263931	975.297424	1031.470337	977.972473	4.762168
222.640060	974.182922	1034.219604	975.743347	2.599119
223.016159	972.696960	1033.179321	973.588562	1.474151
223.392212	977.452332	1025.749023	978.863953	2.922811
223.768265	981.539001	1031.693359	984.065186	5.036819
224.144302	989.489258	1034.888306	983.693787	-12.765623
224.520294	982.727722	1045.067749	978.715393	-6.436201
224.896286	981.687500	1049.674561	968.313049	-19.672052
225.272217	967.718567	1049.377319	966.678406	-1.273790
225.648148	967.049866	1046.702271	968.238770	1.492615
226.024048	962.740295	1049.600220	974.405945	13.430416
226.399902	971.210876	1062.603149	976.560608	5.853593
226.775772	978.715515	1067.432861	970.690735	-9.045334
227.151581	985.031189	1067.804443	981.316101	-4.488271
227.527374	986.963074	1075.383301	981.761902	-5.882333
227.903137	980.870300	1083.482300	986.963074	5.937681
228.278870	976.263428	1092.993042	980.127197	3.310017
228.654572	967.495789	1100.646118	980.201477	9.542363
229.030273	966.455505	1118.850464	982.356262	10.433912
229.405930	962.814697	1131.407471	980.201477	10.312885
229.781555	968.387390	1125.983521	981.687561	8.439402
230.157181	976.189148	1126.280640	982.802063	4.405923
230.532761	983.470886	1120.039185	984.882568	1.033682
230.908325	981.390320	1126.429321	984.436707	2.100391
231.283859	975.074646	1116.546997	988.003235	9.138597
231.659332	970.839355	1116.992798	989.415039	12.709713
232.034821	967.495667	1112.906128	983.768066	11.190666
232.410263	968.238770	1119.816284	976.263489	5.294136
232.785690	966.604065	1116.621338	968.164490	1.040163
233.161087	967.718689	1106.590454	980.127197	8.935227
233.536469	973.439941	1103.915649	982.950684	7.289282
233.911804	971.953918	1105.698853	982.133301	7.611042
234.287140	975.520508	1118.850342	971.953857	-2.488421
234.662430	964.969421	1115.581055	973.811462	5.870756
235.037704	974.108704	1126.949341	979.161194	3.305724
235.412933	977.749512	1133.710938	982.207703	2.858521
235.788162	982.579285	1146.639648	979.161316	-2.083360
236.163345	979.830078	1142.552856	984.436768	2.831005
236.538513	978.715393	1139.209351	983.916687	3.240803
236.913635	976.040527	1136.757324	981.241699	3.236234
237.288742	974.182922	1135.494019	973.216980	-0.598807
237.663834	973.291321	1140.843872	974.257263	0.576501
238.038879	970.690735	1144.336060	977.675110	4.022207
238.413910	974.183044	1151.915039	982.950684	4.933067
238.788910	972.473938	1156.224609	981.984802	5.175961
239.163879	979.607117	1156.670532	981.316101	0.965182
239.538834	975.594727	1161.945923	975.446106	-0.079753
239.913757	976.634949	1177.995483	977.080811	0.221425
240.288651	977.526611	1202.143677	976.337708	-0.529303
240.663528	981.910461	1231.418945	980.498718	-0.565810
241.038361	982.504883	1261.140015	977.823792	-1.680008
241.413177	973.662781	1291.529907	980.350098	2.103809
241.787979	970.319275	1328.755615	989.414978	5.327502
242.162735	968.907532	1368.581909	1000.486145	7.901085
242.537476	972.325439	1401.869507	1004.275574	7.438150
242.912170	973.885742	1423.194214	998.925781	5.573017
243.286865	971.879639	1427.800903	994.616211	4.986951
243.661514	971.953918	1417.918823	990.752441	4.215247
244.036148	967.644348	1389.460938	989.935120	5.284470
244.410751	977.675110	1368.433105	987.631775	2.548039
244.785339	986.145691	1359.665527	986.814453	0.179043
245.159882	993.724548	1374.005859	990.752441	-0.781555
245.534378	985.476990	1403.949829	998.034180	3.000718
245.908890	980.721619	1468.964722	1007.024719	5.387296
246.283356	972.919861	1549.954712	1009.996887	6.425440
246.657791	972.102539	1637.111816	1005.390137	5.005584
247.032196	970.393555	1702.275391	1007.470520	5.065977
247.406586	970.913574	1749.011719	1005.092957	4.392683
247.780960	971.507996	1759.785645	1009.253906	4.788403
248.155289	974.703125	1744.479370	1007.842102	4.305014
248.529602	971.582336	1691.873047	999.668762	3.899318
248.903870	975.371826	1628.195435	998.851501	3.596634
249.278122	971.359436	1558.722534	1001.377747	5.110691
249.652344	966.232605	1513.769409	1007.470520	7.531533
250.026550	965.043762	1483.899780	1006.727539	8.033785
250.400711	967.272766	1475.651978	1002.715271	6.971667
250.774857	981.687500	1483.825317	1000.114685	3.669746
251.148987	989.117859	1504.481445	997.216858	1.571512
251.523071	988.449036	1533.162476	988.969238	0.095500
251.897125	988.077576	1547.948608	993.650330	0.995364
252.271164	980.795959	1562.660522	990.826843	1.723921
252.645187	985.105469	1557.310669	993.055908	1.389439
253.019165	978.121094	1539.701172	985.254089	1.270165
253.393112	981.018799	1521.273926	986.814453	1.072762
253.767044	980.350098	1500.023438	980.127136	-0.042904
254.140930	986.814453	1492.964478	986.071472	-0.146791
254.514801	988.820740	1475.800659	990.603821	0.366151
254.888657	984.882629	1478.029663	999.222961	2.907922
255.262466	981.761902	1480.258789	1000.337585	3.726339
255.636276	985.625671	1499.726074	1006.430359	4.046814
256.010010	990.306641	1524.840454	1006.727539	3.072004
256.383759	994.616211	1549.286133	1011.928711	3.121226
256.757446	987.111633	1576.035156	1007.767822	3.507448
257.131134	983.247864	1614.375122	1007.470703	3.838028
257.504791	974.554504	1676.120728	1000.188965	3.653890
257.878418	977.006409	1749.011719	1006.653320	3.840247
258.252014	980.647278	1824.280396	1010.368408	3.522992
258.625580	985.179871	1940.044067	1022.702637	3.929644
258.999115	982.356384	2078.841553	1017.055664	3.164592
259.372650	984.511169	2245.354004	1027.903809	3.441558
259.746124	984.956970	2378.281494	1030.801636	3.290308
260.119598	984.213928	2463.803955	1042.764282	3.957201
260.493042	979.161316	2470.714111	1039.197876	4.025105
260.866425	973.514343	2407.705322	1040.906738	4.698984
261.239838	974.851746	2301.749756	1034.442383	4.490973
261.613159	969.947754	2179.818848	1031.693237	5.103476
261.986511	973.217041	2069.776367	1018.764587	4.153678
262.359802	972.845520	1987.671875	1019.656250	4.612684
262.733063	979.384094	1954.087280	1019.284729	4.093619
263.106293	977.898132	1944.353638	1021.662415	4.528329
263.479523	983.470764	1934.694336	1016.609863	3.483839
263.852692	981.316101	1917.233276	1016.609863	3.771035
264.225861	974.777344	1897.617188	1017.129944	4.589377
264.598969	968.461609	1901.183594	1019.433350	5.464838
264.972076	971.730957	1923.623169	1020.473572	5.120602
265.345154	979.978577	1972.217163	1015.495300	3.579454
265.718201	979.012634	2028.315796	1019.061829	3.816742
266.091217	972.473938	2087.237549	1025.972046	4.799054
266.464203	980.052917	2144.302002	1037.786133	4.958838
266.837158	981.613281	2194.679443	1040.832520	4.881782
267.210114	984.436768	2234.059814	1036.671509	4.180040
267.583038	979.532715	2244.759521	1034.368164	4.334041
267.955902	974.034363	2246.096924	1025.526245	4.047905
268.328766	978.046692	2255.384766	1025.526123	3.717061
268.701569	977.452332	2269.948242	1025.303223	3.702209
269.074371	976.412109	2285.031494	1033.996704	4.400408
269.447144	973.588562	2310.443115	1033.550903	4.485331
269.819885	973.365662	2391.507080	1034.070923	4.280622
270.192596	975.891907	2503.258545	1034.293823	3.823700
270.565277	975.000244	2650.526611	1043.804565	4.106430
270.937927	971.508118	2775.503906	1053.092407	4.522421
271.310577	973.885803	2887.404053	1058.293579	4.411130
271.683136	973.365723	2952.567383	1059.630981	4.358589
272.055725	968.535950	2978.127686	1063.866333	4.743769
272.428284	965.935364	2954.721924	1065.129517	4.987672
272.800812	968.090149	2906.573975	1068.696045	5.189927
273.173279	971.433777	2817.039063	1059.556763	4.774747
273.545776	970.244934	2764.878662	1053.018188	4.612264
273.918152	972.994141	2715.021484	1044.176147	4.086159
274.290558	975.148926	2716.507568	1046.256714	4.083466
274.662964	984.733887	2715.021729	1057.773560	4.221244
275.035278	980.052917	2730.922607	1056.659058	4.375319
275.407593	978.789734	2767.627686	1055.470215	4.286609
275.779907	973.291321	2817.113281	1050.788940	4.203096
276.152161	974.925964	2869.645264	1060.671265	4.525488
276.524384	980.572998	2921.136963	1067.135620	4.460694
276.896606	983.768066	2960.294922	1069.810669	4.353222
277.268799	974.480164	2977.904541	1069.141846	4.724994
277.640930	967.198486	2981.025391	1073.599976	5.283547
278.013031	957.539124	2983.328369	1072.708374	5.685154
278.385162	963.929199	2989.198486	1067.581421	5.117948
278.757233	966.009583	2986.821045	1063.123413	4.805685
279.129272	969.056091	3013.867188	1061.265747	4.509446
279.501282	968.684570	3054.733398	1060.299805	4.391807
279.873230	974.182922	3131.413818	1059.631104	3.961012
280.245178	977.377991	3228.750244	1060.002563	3.669965
280.617126	977.452332	3361.603516	1073.154175	4.014085
280.988983	973.960022	3487.175049	1078.355347	4.153855
281.360870	975.074524	3596.474609	1086.974487	4.268710
281.732697	977.452332	3668.622314	1088.683472	4.133189
282.104492	972.102539	3716.176514	1094.404785	4.456959
282.476288	966.678467	3728.436279	1101.983643	4.899241
282.848053	966.604187	3722.343506	1103.172485	4.955777
283.219757	976.114807	3725.612549	1099.234497	4.477897
283.591461	981.018799	3703.024414	1094.627808	4.173724
283.963135	977.898132	3719.965820	1092.547241	4.181119
284.334747	969.724792	3770.863037	1100.943481	4.684477
284.706360	972.473938	3865.301758	1101.835083	4.471788
285.077942	975.371765	3956.099609	1105.104370	4.352380
285.449524	980.572998	4051.653076	1098.862915	3.851737
285.821014	978.195251	4086.278076	1099.531616	3.903898
286.192535	979.978516	4123.354980	1102.800903	3.907339
286.563995	983.693665	4116.593262	1105.847412	3.899064
286.935425	981.687500	4096.902832	1107.333496	4.033300
287.306824	982.950684	4027.132813	1101.909302	3.907737
287.678223	970.319275	3951.121826	1100.794800	4.377194
288.049561	970.467834	3905.128174	1104.881470	4.580211
288.420898	959.248230	3879.494141	1110.751343	5.188026
288.792145	966.678467	3912.632813	1109.785400	4.857744
289.163452	963.260559	4010.340820	1102.726563	4.577037
289.534668	970.690735	4155.379395	1095.222046	3.910313
289.905914	970.839355	4269.434082	1110.082642	4.221291
290.277039	976.857910	4380.517090	1123.457153	4.307107
290.648193	977.749512	4434.832031	1136.088501	4.580133
291.019318	972.622559	4435.872559	1132.596313	4.619180
291.390381	971.508057	4373.086426	1123.457153	4.467017
291.761475	973.142761	4291.354004	1116.398315	4.317253
292.132507	974.480164	4249.447266	1109.265259	4.115617
292.503510	977.006531	4236.146484	1108.447876	4.033007
292.874481	972.771240	4280.579590	1109.859741	4.144391
293.245422	985.254089	4358.374512	1114.243530	3.824039
293.616364	985.328430	4495.017090	1119.890625	3.834021
293.987213	984.808289	4636.563965	1122.639771	3.774390
294.358093	977.303711	4781.529297	1120.930786	3.775462
294.728943	971.433777	4901.824707	1130.070190	4.036149
295.099731	973.811523	5032.672363	1132.150513	3.901070
295.470490	983.842346	5141.971191	1149.463135	3.983060
295.841248	992.312805	5262.193359	1151.023438	3.716981
296.211975	992.015625	5379.962891	1158.825195	3.801540
296.582642	980.647278	5501.968262	1156.818970	3.896465
296.953308	974.405945	5553.014160	1162.094482	4.099248
297.323883	969.724792	5538.302246	1161.054321	4.187945
297.694519	975.223145	5427.739746	1156.818970	4.078498
298.065063	974.703125	5306.774902	1140.843872	3.835134
298.435608	983.322266	5130.156738	1136.980347	3.705431
298.806122	977.898132	4940.016113	1133.339478	3.923188
299.176575	978.715393	4739.770996	1128.063965	3.970922
299.547028	970.839355	4614.124512	1123.085571	4.178817
299.917450	969.650574	4554.459473	1128.212524	4.423163
300.287872	976.189148	4560.106934	1135.791382	4.453290
300.658234	977.006409	4548.589844	1133.339355	4.377132
301.028564	981.464661	4541.605469	1117.290039	3.815169
301.398865	977.006531	4489.296387	1115.581055	3.945418
301.769135	978.343994	4446.274902	1116.101196	3.972317
302.139374	972.251160	4400.281250	1124.423218	4.439053
302.509583	971.136658	4376.132813	1119.816406	4.366518
302.879791	975.074646	4318.919922	1119.816284	4.328598
303.249939	973.365662	4257.396973	1106.144653	4.043171
303.620087	971.507996	4186.363770	1103.543945	4.107057
303.990173	973.662842	4170.908691	1094.033203	3.764814
304.360260	981.316101	4175.887207	1097.376953	3.633065
304.730286	977.675232	4167.937012	1091.358398	3.563443
305.100281	972.176819	4154.265137	1096.113770	3.894830
305.470276	972.251038	4153.521973	1090.615356	3.720661
305.840179	972.548340	4181.979980	1098.194336	3.914899
306.210144	974.108704	4228.122559	1103.766968	3.984564
306.579987	970.765076	4262.004395	1116.324097	4.422620
306.949890	980.647278	4321.223145	1121.376831	4.212733
307.319702	980.127136	4391.662598	1122.714233	4.179558
307.689484	984.288086	4503.785645	1123.011353	3.941565
308.059265	977.600830	4619.623047	1127.172241	4.106823
308.429016	975.669006	4733.603027	1131.407349	4.144254
308.798737	974.405823	4803.150879	1125.909058	3.956995
309.168396	978.269592	4843.868652	1131.927612	3.975012
309.538055	982.207703	4866.456543	1131.704712	3.848801
309.907684	982.430603	4867.719727	1143.593140	4.148019
310.277313	979.532776	4884.140625	1132.522095	3.918174
310.646851	977.823914	4860.363770	1137.648926	4.116507
311.016388	977.675293	4862.593262	1131.704712	3.964805
311.385895	981.687561	4804.117188	1137.648926	4.080163
311.755371	977.898132	4762.729980	1122.937012	3.832109
312.124817	976.560730	4695.708984	1119.593384	3.845845
312.494232	976.114929	4626.236328	1113.426270	3.761829
312.863617	979.235657	4609.146484	1117.364380	3.805292
313.232971	977.303711	4625.047363	1123.382935	4.004646
313.602295	978.195313	4715.622070	1129.698608	4.053679
313.971619	985.476990	4784.277832	1126.949341	3.724132
314.340820	985.922852	4829.603027	1129.327026	3.730908
314.710083	980.275818	4819.869141	1126.949463	3.820031
315.079285	973.960022	4747.126465	1131.333252	4.170853
315.448486	976.634949	4665.021973	1119.296265	3.867851
315.817596	984.362366	4544.279785	1118.998901	3.782013
316.186707	988.671936	4444.565918	1111.791626	3.562600
316.555786	988.226135	4334.746094	1123.531494	4.043166
316.924866	983.545105	4269.657715	1113.351929	3.950164
317.293884	972.845520	4267.056641	1122.416870	4.540430
317.662872	974.628845	4275.081543	1115.135254	4.257186
318.031830	971.136536	4332.442871	1121.079468	4.460853
318.400757	978.343933	4352.059082	1113.649292	4.010574
318.769684	968.015930	4399.761719	1108.448120	4.092150
319.138550	968.090149	4392.405273	1102.875366	3.936122
319.507416	968.907471	4370.188477	1104.732910	3.993361
319.876190	972.028137	4303.241699	1104.881470	3.988136
320.244995	973.885742	4228.939453	1109.042358	4.152208
320.613770	980.572998	4190.970215	1108.893799	3.997038
320.982483	980.275696	4206.425293	1109.413940	4.002860
321.351166	984.362488	4251.081543	1110.156982	3.850790
321.719818	970.839355	4306.288574	1108.671021	4.132327
322.088440	969.353333	4420.640625	1114.540894	4.206765
322.457062	968.238770	4586.707031	1115.209473	4.061683
322.825623	970.913635	4768.525879	1121.228027	3.958129
