Jaz Data File
++++++++++++++++++++++++++++++++++++
Date: Fri Jun 04 13:37:56 2021
User: jaz
Dark Spectrum Present: Yes
Reference Spectrum Present: Yes
Processed Spectrum Present: Yes
Spectrometers: JAZA3586
Integration Time (usec): 30700 (JAZA3586)
Spectra Averaged: 10 (JAZA3586)
Boxcar Smoothing: 1 (JAZA3586)
Correct for Electrical Dark: No (JAZA3586)
Strobe/Lamp Enabled: Yes (JAZA3586)
Correct for Detector Non-linearity: No (JAZA3586)
Correct for Stray Light: No (JAZA3586)
Number of Pixels in Processed Spectrum: 2048
>>>>>Begin Processed Spectral Data<<<<<
W	D	R	S	P
191.335022	0.000000	0.000000	0.000000	0.000000
191.713211	290.375031	294.164459	294.833221	117.648102
192.091385	586.397034	587.808777	596.725159	731.586670
192.469528	886.431458	888.140381	891.261230	282.620819
192.847641	899.657288	900.549011	897.725525	-216.632446
193.225739	907.161926	913.180420	893.861755	-220.988373
193.603790	918.233093	923.137024	906.270325	-243.942444
193.981842	924.771729	924.102966	907.607727	2566.532715
194.359863	931.310242	928.486816	915.335205	565.803406
194.737854	934.653809	925.366150	922.691162	128.801529
195.115829	935.174011	929.155518	927.743713	123.457764
195.493774	934.951111	928.561096	926.183411	137.209396
195.871704	940.003723	937.700378	917.044128	996.793701
196.249603	938.814880	935.991394	919.719055	676.320801
196.627457	935.025391	938.889160	927.149353	-203.843353
197.005310	920.982178	929.972900	931.310242	114.874680
197.383133	924.548767	937.551758	933.093506	65.713638
197.760910	929.972839	945.502136	924.845947	-33.014320
198.138687	931.756165	951.372070	924.325867	-37.878944
198.516449	930.195801	942.307129	922.096741	-66.871773
198.894180	923.359863	927.223694	926.703613	86.539764
199.271866	918.010193	920.759338	919.793457	64.866127
199.649536	919.273254	924.548828	918.678894	-11.266270
200.027191	918.976074	921.428040	914.072083	-200.002487
200.404816	923.805725	929.304016	921.725342	-37.836906
200.782410	924.177246	933.687988	924.771667	6.250000
201.159988	923.582764	952.189270	935.471191	41.558475
201.537537	923.731445	956.944763	937.848938	42.505516
201.915070	915.632385	959.916809	939.260742	53.355907
202.292557	918.010071	958.579407	938.889160	51.465199
202.670029	919.793457	961.402893	938.443359	44.821331
203.047485	918.530273	956.944641	933.019287	37.717693
203.424911	913.403320	959.619629	928.040955	31.672010
203.802292	911.917297	958.505066	919.347595	15.949032
204.179688	908.647949	966.529785	920.610657	20.667463
204.557037	911.397217	959.619629	919.570496	16.949129
204.934357	906.641785	962.443115	924.400208	31.824371
205.311661	908.722351	953.303894	922.394043	30.666708
205.688934	910.654114	957.687744	928.858337	38.704697
206.066177	911.397156	956.870422	927.595215	35.621059
206.443390	906.418945	960.288330	930.344421	44.413864
206.820587	905.304382	957.984924	922.616882	32.863178
207.197769	904.932861	956.573242	924.697327	38.273277
207.574921	910.059753	965.638184	914.517883	8.021331
207.952042	908.350769	968.610291	907.161926	-1.972871
208.329147	904.412781	961.477234	896.090820	-14.583440
208.706223	918.233093	968.164490	908.722351	-19.047619
209.083267	914.666504	964.226379	916.746887	4.197717
209.460297	920.164856	964.375000	914.889343	-11.932811
209.837280	904.784363	950.108887	902.778076	-4.426492
210.214264	907.830750	954.492737	895.942139	-25.478149
210.591217	904.858582	955.161438	913.254700	16.691135
210.968124	904.709961	961.625793	920.090637	27.023546
211.345016	901.514893	961.848694	920.610779	31.650394
211.721893	901.737793	969.056152	913.774841	17.880781
212.098724	902.778076	963.409119	907.533447	7.843129
212.475555	905.378723	967.941589	908.796570	5.463059
212.852356	903.223938	969.947754	911.842957	12.917455
213.229126	908.425110	969.056152	915.929688	12.377451
213.605865	907.682068	963.037598	908.870911	2.147650
213.982590	908.870911	955.310059	901.514954	-15.839992
214.359283	904.561340	954.789978	896.759583	-15.532490
214.735931	907.087646	952.783752	909.242371	4.715334
215.112579	912.214539	956.350281	912.214539	0.000000
215.489197	902.406555	959.693909	918.455994	28.015675
215.865799	899.508789	964.895203	921.130859	33.068138
216.242355	891.632629	965.415283	926.034851	46.626434
216.618896	894.010315	957.464844	925.068848	48.946125
216.995407	896.239441	954.269836	915.112305	32.522377
217.371902	899.954529	948.919983	913.403320	27.465878
217.748367	901.886414	949.811707	910.951355	18.914734
218.124802	895.942200	947.359680	916.152527	39.306335
218.501236	895.645020	954.566956	914.740723	32.408478
218.877609	905.527344	964.226379	919.050354	23.037874
219.253983	911.620117	975.371826	920.685059	14.219134
219.630295	911.620117	978.789734	917.267090	8.407034
220.006592	906.344543	971.136536	915.335266	13.876287
220.382889	901.291992	971.582336	914.146423	18.287621
220.759140	905.081482	967.198547	915.706726	17.105194
221.135391	903.372559	971.136536	916.969910	20.065752
221.511581	909.242432	961.997314	918.307312	17.183018
221.887772	907.236267	960.808411	912.808899	10.402107
222.263931	913.774902	963.409119	911.620056	-4.341453
222.640060	912.065918	968.090149	914.294922	3.978642
223.016159	910.951416	971.210754	924.325867	22.194818
223.392212	906.790344	971.730957	923.137024	25.171736
223.768265	902.778015	978.566833	920.610657	23.529383
224.144302	906.567444	982.876404	912.437439	7.692406
224.520294	910.579834	988.300476	909.316650	-1.625287
224.896286	907.459167	985.551270	911.099915	4.662119
225.272217	904.487061	988.151855	915.409485	13.054982
225.648148	901.143372	988.671936	922.765442	24.702873
226.024048	908.350769	988.077637	918.827454	13.140720
226.399902	910.059753	987.408875	915.855286	7.492693
226.775772	905.527344	995.359314	913.254700	8.602011
227.151581	902.852356	1007.024719	914.815002	11.483513
227.527374	894.902039	1014.380676	917.712891	19.091991
227.903137	896.165039	1030.504395	916.969910	15.486802
228.278870	898.988586	1044.919067	918.976013	13.696540
228.654572	896.016418	1060.299683	918.307312	13.568572
229.030273	893.415833	1062.454468	924.845886	18.593414
229.405930	895.793518	1063.569214	924.920227	17.360506
229.781555	903.892578	1068.398804	929.006897	15.266485
230.157181	913.997742	1072.931274	924.102966	6.358145
230.532761	913.849121	1073.599976	917.489990	2.279092
230.908325	915.409485	1064.312134	912.883301	-1.696534
231.283859	911.471497	1056.658813	911.768738	0.204729
231.659332	911.694397	1052.052124	921.650940	7.093691
232.034821	903.892578	1049.377319	923.657043	13.585250
232.410263	898.096985	1045.439331	924.994446	18.255079
232.785690	888.883484	1039.643677	918.827393	19.861946
233.161087	889.329285	1041.947144	913.106140	15.579340
233.536469	900.846191	1047.148193	917.564270	11.427102
233.911804	901.143372	1060.522827	923.434265	13.986052
234.287140	901.886414	1064.535034	934.430969	20.009119
234.662430	892.152771	1061.414429	928.412537	21.422316
235.037704	898.394226	1063.569214	928.635437	18.308590
235.412933	906.938965	1061.785889	920.684998	8.877175
235.788162	906.938965	1067.878540	920.239197	8.264115
236.163345	908.796570	1060.745605	921.725281	8.508584
236.538513	901.069153	1064.312134	920.090576	11.652215
236.913635	895.867920	1073.377197	919.719055	13.436557
237.288742	892.524353	1080.138672	917.044250	13.069310
237.663834	895.570740	1092.250000	930.790222	17.907064
238.038879	900.251770	1087.866089	937.254578	19.722805
238.413910	903.818298	1096.039429	933.093567	15.229995
238.788910	905.155701	1097.971313	931.013123	13.410439
239.163879	907.384766	1111.345825	929.007019	10.601168
239.538834	905.898743	1119.147461	929.824219	11.219517
239.913757	906.047363	1138.763550	924.771667	8.045982
240.288651	909.539551	1160.014038	929.229797	7.861178
240.663528	906.121643	1188.323364	932.647766	9.399703
241.038361	900.400391	1210.094116	930.567200	9.740852
241.413177	897.279602	1237.734741	932.127625	10.235717
241.787979	901.514893	1268.644653	931.830383	8.257432
242.162735	907.904968	1314.638062	939.186340	7.690885
242.537476	909.019470	1344.582031	928.189636	4.401243
242.912170	906.938965	1363.380493	926.183411	4.216191
243.286865	903.521057	1361.745850	920.982239	3.810615
243.661514	903.372498	1346.811035	934.282410	6.970507
244.036148	910.134033	1335.591309	938.146179	6.584009
244.410751	911.991638	1318.427368	945.279297	8.190141
244.785339	908.127930	1327.863892	936.288757	6.709177
245.159882	905.675964	1339.157959	941.564148	8.279048
245.534378	906.641846	1374.600220	934.951172	6.049540
245.908890	908.870850	1432.853638	943.644531	6.636417
246.283356	909.242371	1516.518555	936.957336	4.563816
246.657791	908.053528	1598.623047	939.929443	4.615888
247.032196	910.282654	1666.907227	936.957336	3.525485
247.406586	909.019531	1703.761353	941.192566	4.048237
247.780960	909.985413	1715.204102	942.604309	4.050936
248.155289	910.505554	1695.513794	936.140076	3.265510
248.529602	906.195984	1655.018677	939.855164	4.494946
248.903870	905.898743	1599.588989	944.461914	5.559134
249.278122	910.728455	1532.493652	951.817871	6.608510
249.652344	910.282532	1478.624023	940.301086	5.281781
250.026550	914.517883	1438.946411	937.105957	4.307178
250.400711	908.945129	1419.033325	938.814941	5.855813
250.774857	910.431213	1411.454468	948.994324	7.696870
251.148987	905.304382	1426.017944	943.793152	7.391543
251.523071	902.257996	1457.224976	948.994385	8.421472
251.897125	899.805969	1495.490845	948.845764	8.232507
252.271164	896.313782	1516.741577	954.641357	9.401187
252.645187	899.360168	1517.484497	949.291504	8.077879
253.019165	906.790466	1494.822266	955.978760	8.364903
253.393112	907.904968	1476.469360	960.882813	9.317826
253.767044	903.372498	1455.664551	959.025208	10.076681
254.140930	894.976257	1439.243774	954.492737	10.935152
254.514801	902.852356	1423.268555	950.257507	9.109084
254.888657	908.499329	1417.844604	949.663086	8.081700
255.262466	909.539551	1426.835083	953.081055	8.417143
255.636276	903.149597	1434.934204	958.579407	10.423357
256.010010	904.858582	1458.636719	961.254333	10.183817
256.383759	909.539551	1485.608765	959.248047	8.628910
256.757446	915.335205	1529.595825	952.412292	6.036051
257.131134	907.830750	1568.827759	958.059265	7.598902
257.504791	910.356934	1631.464844	952.932373	5.904171
257.878418	908.053528	1711.117554	957.762024	6.189855
258.252014	911.248596	1809.196899	955.755859	4.956551
258.625580	909.019531	1926.372437	968.461670	5.842824
258.999115	901.886414	2067.621826	982.207703	6.890182
259.372650	904.932800	2236.586182	992.535828	6.578516
259.746124	900.549011	2375.755127	993.650330	6.311072
260.119598	897.799805	2457.636719	997.737000	6.406900
260.493042	900.697571	2459.940186	1000.931946	6.428401
260.866425	902.332275	2388.312256	1005.910339	6.970354
261.239838	908.870911	2272.251709	993.501709	6.207422
261.613159	900.697571	2137.837891	983.470886	6.690697
261.986511	903.966980	2037.157715	972.176758	6.019268
262.359802	900.697571	1970.285156	975.148926	6.960753
262.733063	897.502625	1942.718872	970.987976	7.030636
263.106293	896.239441	1929.864624	972.845520	7.411398
263.479523	907.682129	1914.038086	968.907471	6.083865
263.852692	912.957581	1896.279663	971.508057	5.954354
264.225861	911.917297	1879.487305	966.901306	5.682691
264.598969	900.697571	1885.728882	970.467773	7.083044
264.972076	894.010315	1907.573853	965.563782	7.059594
265.345154	901.143372	1958.173828	964.597900	6.003093
265.718201	903.149597	2023.040161	960.139832	5.088911
266.091217	913.031921	2088.054932	970.022034	4.850128
266.464203	906.270325	2145.565430	983.396484	6.223389
266.837158	908.276428	2190.146973	981.093079	5.680499
267.210114	903.818298	2228.784424	976.337708	5.473303
267.583038	908.647949	2253.155762	967.049866	4.343740
267.955902	911.397156	2267.644775	975.297546	4.711558
268.328766	912.511719	2270.022461	979.532715	4.937051
268.701569	906.716125	2277.526855	984.288086	5.658838
269.074371	906.939026	2296.399658	974.405823	4.855610
269.447144	910.505554	2342.541992	980.721619	4.903232
269.819885	911.620117	2416.101563	975.148926	4.222638
270.192596	911.843018	2523.320313	988.374817	4.749170
270.565277	907.384766	2670.588135	985.848450	4.450064
270.937927	908.202148	2812.358154	997.068176	4.666951
271.310577	904.041199	2922.845947	1000.040344	4.755247
271.683136	904.784180	2979.093018	1004.721375	4.817855
272.055725	901.589172	2992.021729	1001.526367	4.780694
272.428284	901.663513	2964.827148	1001.229187	4.825874
272.800812	901.737793	2915.787354	1003.755554	5.065305
273.173279	901.886414	2842.376221	1003.755554	5.249661
273.545776	900.994812	2804.555908	1002.640930	5.339787
273.918152	901.514893	2764.803955	995.062012	5.020537
274.290558	904.487000	2763.021240	997.439758	5.001401
274.662964	905.452942	2738.798096	996.250793	4.952578
275.035278	902.555176	2755.516357	994.021790	4.936240
275.407593	907.236267	2785.460205	996.845276	4.770944
275.779907	906.195984	2853.150391	997.885559	4.709385
276.152161	907.384766	2912.963867	1010.219727	5.127445
276.524384	897.056702	2960.666260	1009.922546	5.469341
276.896606	899.285828	2994.325439	1008.139221	5.195768
277.268799	900.474670	2998.635010	994.467590	4.479778
277.640930	901.217773	3007.253906	991.718445	4.297204
278.013031	904.561340	3017.210693	991.495605	4.114941
278.385162	903.818298	3042.399170	995.062195	4.266563
278.757233	901.069092	3051.984375	992.238586	4.238637
279.129272	899.954590	3071.748779	992.981628	4.283419
279.501282	899.731628	3105.705078	996.176575	4.371991
279.873230	905.378662	3175.475342	997.885498	4.075017
280.245178	911.025696	3283.883057	1004.349915	3.932989
280.617126	917.341370	3417.182373	1009.551086	3.688623
280.988983	918.233093	3555.756836	1019.804871	3.851028
281.360870	914.369324	3686.306641	1026.566406	4.047606
281.732697	912.660339	3783.643311	1033.253662	4.200419
282.104492	911.917236	3835.803711	1039.495239	4.363302
282.476288	914.146423	3831.196533	1037.488892	4.228329
282.848053	912.214539	3815.964844	1037.860474	4.327023
283.219757	911.620117	3812.769775	1032.064819	4.151620
283.591461	909.985413	3805.191406	1026.417847	4.021560
283.963135	907.830750	3818.119873	1027.309448	4.105390
284.334747	907.087646	3878.601807	1026.269165	4.010801
284.706360	900.771912	3982.997314	1029.984375	4.192181
285.077942	897.651123	4096.309082	1029.835815	4.132505
285.449524	901.737793	4188.444336	1028.498291	3.856764
285.821014	900.177429	4207.986328	1032.659302	4.005125
286.192535	903.075256	4252.790527	1035.779907	3.961669
286.563995	896.536621	4252.790527	1038.826294	4.239538
286.935425	898.691406	4246.771973	1039.123413	4.194404
287.306824	905.007080	4154.339355	1035.854126	4.026890
287.678223	912.957520	4069.114258	1034.962646	3.865623
288.049561	915.781006	4006.625244	1037.340332	3.932884
288.420898	910.654114	3983.368408	1029.241211	3.859360
288.792145	913.626282	4018.959717	1032.733521	3.835570
289.163452	912.660339	4134.500488	1033.402222	3.747606
289.534668	912.808899	4292.839355	1049.600220	4.047044
289.905914	908.870911	4434.980957	1058.962280	4.256571
290.277039	914.220703	4534.249512	1063.792114	4.131774
290.648193	910.208313	4581.431641	1061.711548	4.126778
291.019318	903.743958	4572.960938	1061.488647	4.299138
291.390381	901.886414	4503.784668	1055.098633	4.253652
291.761475	905.007141	4411.426758	1049.600220	4.123667
292.132507	910.654236	4352.875977	1052.275024	4.114226
292.503510	901.143494	4340.616211	1051.383423	4.368109
292.874481	905.378662	4400.652832	1056.436035	4.321760
293.245422	907.236267	4506.088379	1060.522583	4.259311
293.616364	912.734680	4680.476563	1065.278198	4.048672
293.987213	910.208313	4840.153809	1067.507202	4.002572
294.358093	906.567566	4956.140137	1054.801392	3.660481
294.728943	908.202148	5062.838867	1067.061401	3.823662
295.099731	910.356873	5194.503418	1075.531860	3.855494
295.470490	910.133972	5331.814941	1090.318115	4.075015
295.841248	905.007141	5464.296875	1088.237671	4.018839
296.211975	903.298157	5576.196777	1093.736084	4.075371
296.582642	904.264099	5709.569824	1098.119995	4.034205
296.953308	904.412659	5781.643066	1098.268555	3.974713
297.323883	907.979187	5770.943848	1097.005371	3.887056
297.694519	902.183594	5639.873535	1088.237671	3.927105
298.065063	910.282532	5491.268066	1087.346069	3.865185
298.435608	903.743958	5310.118652	1082.219238	4.050388
298.806122	896.239319	5126.516113	1075.754883	4.243589
299.176575	900.325989	4927.979004	1062.826050	4.034609
299.547028	905.007141	4815.781738	1049.228760	3.687802
299.917450	913.106201	4759.460938	1044.101807	3.405708
300.287872	908.499329	4750.247559	1047.816895	3.626410
300.658234	905.081543	4722.829590	1056.213257	3.958661
301.028564	907.384827	4699.052246	1054.206909	3.872230
301.398865	906.047424	4647.337891	1056.436035	4.019699
301.769135	906.196045	4590.199219	1048.559937	3.864380
302.139374	905.452942	4539.079590	1058.962402	4.224690
302.509583	895.719299	4489.964844	1057.847778	4.510779
302.879791	897.428223	4420.417480	1060.819946	4.637872
303.249939	901.366272	4371.897949	1053.761230	4.391113
303.620087	911.471497	4335.117676	1049.303101	4.025872
303.990173	910.356934	4337.272949	1057.773560	4.301729
304.360260	910.579834	4326.201660	1059.854004	4.370337
304.730286	905.229980	4312.530273	1053.686890	4.357025
305.100281	898.914307	4302.053223	1046.182373	4.327419
305.470276	893.118652	4330.659668	1038.974976	4.243042
305.840179	894.456116	4362.906738	1051.457886	4.526568
306.210144	899.657410	4403.848145	1046.479614	4.189903
306.579987	904.338379	4423.314941	1061.117188	4.455239
306.949890	909.836914	4466.262207	1062.974731	4.305948
307.319702	908.573730	4555.722656	1083.110840	4.785577
307.689484	909.688232	4673.715332	1096.633789	4.966637
308.059265	916.152527	4802.630371	1118.627441	5.209728
308.429016	918.233093	4897.069336	1143.593140	5.663969
308.798737	920.313477	4971.595215	1171.010864	6.188100
309.168396	905.675842	5032.746582	1216.409790	7.529164
309.538055	902.406555	5069.823242	1255.864624	8.481467
309.907684	892.524231	5069.674805	1313.969360	10.089297
310.277313	897.131042	5084.312012	1367.318726	11.229218
310.646851	901.143372	5071.829590	1428.692749	12.648983
311.016388	907.830566	5064.473145	1478.847046	13.737445
311.385895	905.007141	4996.263184	1533.533813	15.362682
311.755371	905.675842	4930.431641	1592.753052	17.071278
312.124817	907.310547	4863.855957	1637.780640	18.462320
312.494232	911.322815	4804.934082	1683.328125	19.827488
312.863617	906.864746	4780.265625	1721.965454	21.043541
313.232971	900.251770	4804.339844	1791.067017	22.817499
313.602295	899.360168	4883.323730	1851.623657	23.902414
313.971619	895.645020	4987.792969	1922.285645	25.088062
314.340820	897.874023	5022.641113	1962.334839	25.806568
314.710083	899.360168	5028.213867	1993.244751	26.493662
315.079285	907.607727	4951.162109	1975.189331	26.402058
315.448486	911.620056	4873.218262	1946.433960	26.121124
315.817596	909.390930	4723.201172	1889.072266	25.687731
316.186707	904.784241	4579.054199	1840.924194	25.478256
316.555786	907.087585	4472.949219	1804.813110	25.175558
316.924866	912.808899	4415.884766	1802.881226	25.408308
317.293884	918.530273	4422.126465	1842.707520	26.377962
317.662872	914.443665	4445.605957	1902.669800	27.985859
318.031830	913.329102	4509.506348	1948.588867	28.787785
318.400757	911.248535	4545.097656	1980.836060	29.434010
318.769684	905.007141	4576.229980	1974.074585	29.120197
319.138550	903.521057	4565.084961	1975.634888	29.280214
319.507416	901.366272	4539.524902	1953.641479	28.923288
319.876190	906.195984	4483.797852	1959.511353	29.441942
320.244995	908.499329	4397.160645	1976.006470	30.599333
320.613770	908.425110	4349.161133	2024.600586	32.440022
320.982483	910.282654	4342.622559	2098.754639	34.625706
321.351166	902.629395	4394.634277	2192.598877	36.940655
321.719818	895.867920	4458.237793	2296.177002	39.308357
322.088440	894.084656	4582.694824	2416.398682	41.270668
322.457062	894.902039	4755.596680	2552.150146	42.926163
322.825623	903.372559	4959.111816	2698.823486	44.269386
323.194183	904.264099	5104.968262	2825.137939	45.727425
323.562653	898.914307	5203.567871	2934.660156	47.291748
