Jaz Data File
++++++++++++++++++++++++++++++++++++
Date: Fri Jun 04 11:55:29 2021
User: jaz
Dark Spectrum Present: Yes
Reference Spectrum Present: Yes
Processed Spectrum Present: Yes
Spectrometers: JAZA3586
Integration Time (usec): 42900 (JAZA3586)
Spectra Averaged: 10 (JAZA3586)
Boxcar Smoothing: 1 (JAZA3586)
Correct for Electrical Dark: No (JAZA3586)
Strobe/Lamp Enabled: Yes (JAZA3586)
Correct for Detector Non-linearity: No (JAZA3586)
Correct for Stray Light: No (JAZA3586)
Number of Pixels in Processed Spectrum: 2048
>>>>>Begin Processed Spectral Data<<<<<
W	D	R	S	P
191.335022	0.000000	0.000000	0.000000	0.000000
191.713211	360.442474	361.334106	352.492096	-891.665833
192.091385	714.197754	726.977783	710.631165	-27.907520
192.469528	1081.921997	1092.918579	1073.154175	-79.732246
192.847641	1091.952759	1100.646118	1079.692871	-141.025894
193.225739	1110.305542	1108.596558	1089.054932	1243.464233
193.603790	1118.701782	1119.147583	1095.519165	-5200.219238
193.981842	1115.506714	1127.320801	1103.915405	-98.114296
194.359863	1115.804077	1126.875000	1113.649170	-19.464567
194.737854	1119.593384	1125.166138	1114.243652	-95.997986
195.115829	1133.785278	1121.005127	1117.735962	125.580017
195.493774	1138.540649	1127.692505	1108.745239	274.659058
195.871704	1140.323853	1134.899780	1105.921631	634.250793
196.249603	1145.747925	1143.444702	1106.887573	1687.216431
196.627457	1149.388794	1143.296021	1110.156982	643.907288
197.005310	1146.193848	1148.571411	1110.231323	-1512.578979
197.383133	1142.924438	1143.816284	1109.339722	-3765.754150
197.760910	1142.998779	1144.261963	1109.414063	-2658.736084
198.138687	1142.404297	1133.042114	1113.797852	305.553162
198.516449	1139.803833	1141.438354	1114.986694	-1518.312134
198.894180	1139.283691	1137.128784	1110.677124	1327.508057
199.271866	1138.020508	1131.258911	1110.528687	406.587708
199.649536	1134.825439	1116.844238	1106.441895	157.851212
200.027191	1128.955688	1112.757690	1111.197266	109.633446
200.404816	1123.828735	1123.011353	1114.094971	1190.845337
200.782410	1121.153809	1134.528320	1123.754395	19.444344
201.159988	1123.457031	1153.921265	1119.816284	-11.950891
201.537537	1128.955444	1161.723022	1117.587280	-34.693329
201.915070	1127.618042	1173.165527	1115.358154	-26.916718
202.292557	1127.989624	1170.342163	1120.262207	-18.245462
202.670029	1120.782104	1167.890259	1115.804077	-10.567231
203.047485	1118.776001	1163.506348	1105.104370	-30.564554
203.424911	1106.515991	1160.459961	1098.640137	-14.600064
203.802292	1108.299316	1159.048218	1094.330566	-27.525227
204.179688	1106.962036	1156.670532	1098.937256	-16.143679
204.557037	1111.345825	1160.979980	1103.766846	-15.269686
204.934357	1116.101196	1157.562012	1108.968140	-17.204332
205.311661	1122.491211	1157.859253	1107.630737	-42.016670
205.688934	1127.692383	1154.144165	1102.726685	-94.381912
206.066177	1123.680054	1158.305054	1095.593628	-81.116028
206.443390	1112.460327	1163.877808	1088.014771	-47.543282
206.820587	1104.212769	1165.066772	1085.265503	-31.135611
207.197769	1103.172485	1161.946045	1083.259399	-33.881027
207.574921	1109.488159	1155.333008	1086.157227	-50.891068
207.952042	1108.373535	1157.413452	1088.906372	-39.696568
208.329147	1114.689453	1162.763306	1099.605957	-31.375675
208.706223	1130.515869	1172.645508	1119.073364	-27.160225
209.083267	1138.391968	1171.010864	1118.255981	-61.731049
209.460297	1132.521973	1170.342163	1114.094849	-48.722980
209.837280	1115.952515	1160.311279	1096.856689	-43.048595
210.214264	1114.838013	1154.515747	1092.546997	-56.180164
210.591217	1114.020630	1157.562134	1087.568848	-60.750732
210.968124	1114.466431	1160.088257	1093.067261	-46.905552
211.345016	1114.392212	1166.032471	1093.958984	-39.568405
211.721893	1111.271484	1165.438110	1096.559570	-27.160477
212.098724	1105.773071	1164.472290	1093.215942	-21.392326
212.475555	1107.184814	1166.255493	1100.274658	-11.698115
212.852356	1109.488281	1163.283325	1096.411011	-24.309433
213.229126	1113.203247	1164.249390	1099.680298	-26.491619
213.605865	1109.116699	1154.664307	1103.766968	-11.745362
213.982590	1107.779175	1155.333008	1110.900024	6.562772
214.359283	1109.636841	1147.902832	1102.057983	-19.805727
214.735931	1106.441772	1159.494019	1086.231567	-38.094910
215.112579	1101.686401	1162.540405	1080.361694	-35.042404
215.489197	1098.119995	1172.274048	1082.590698	-20.941940
215.865799	1099.903198	1174.577271	1090.689575	-12.338450
216.242355	1104.435669	1174.354370	1092.844360	-16.578266
216.618896	1103.989868	1167.890137	1093.141602	-16.976871
216.995407	1103.766968	1161.351440	1094.256226	-16.516157
217.371902	1104.807251	1153.103882	1095.890991	-18.461452
217.748367	1106.218872	1151.023438	1093.141724	-29.187090
218.124802	1106.293335	1149.240112	1097.599854	-20.242453
218.501236	1103.692749	1151.543579	1095.296387	-17.546953
218.877609	1107.853638	1160.014038	1090.689575	-32.906307
219.253983	1116.844116	1161.945923	1078.949829	-84.019447
219.630295	1121.971069	1161.797363	1079.321411	-107.089195
220.006592	1122.268188	1161.945923	1094.553345	-69.849861
220.382889	1114.095093	1164.620728	1091.506958	-44.706287
220.759140	1112.237427	1173.314209	1093.958862	-29.927189
221.135391	1103.841187	1168.112915	1082.144653	-33.757507
221.511581	1104.138306	1168.558960	1087.048828	-26.527948
221.887772	1106.367554	1161.054321	1089.575073	-30.706661
222.263931	1111.345825	1162.986328	1092.547241	-36.402790
222.640060	1113.574951	1156.596069	1089.129272	-56.822510
223.016159	1110.528442	1159.716797	1083.110718	-55.740276
223.392212	1107.705078	1162.317383	1087.123169	-37.687309
223.768265	1111.940308	1170.416504	1089.946655	-37.611290
224.144302	1111.717285	1172.942749	1094.033203	-28.883541
224.520294	1115.506714	1176.955078	1084.299683	-50.785782
224.896286	1112.237427	1189.586548	1086.157227	-33.717514
225.272217	1107.779175	1195.084961	1082.590698	-28.850868
225.648148	1107.407715	1197.685669	1087.123169	-22.468992
226.024048	1102.726685	1187.803345	1091.729858	-12.925785
226.399902	1109.859741	1185.276978	1095.965210	-18.423548
226.775772	1105.104370	1188.174805	1094.107544	-13.237954
227.151581	1105.624512	1192.855957	1090.986816	-16.780296
227.527374	1096.856812	1209.871216	1085.339844	-10.190708
227.903137	1099.011597	1216.409790	1083.556519	-13.164664
228.278870	1102.875366	1222.131226	1080.584595	-18.691553
228.654572	1107.482056	1221.165405	1086.008667	-18.888771
229.030273	1102.132324	1232.384888	1085.934204	-12.435932
229.405930	1093.290405	1247.914185	1088.014648	-3.411996
229.781555	1097.005371	1260.471313	1088.757690	-5.045504
230.157181	1105.624512	1257.202026	1101.760742	-2.549039
230.532761	1111.717285	1247.542603	1109.265259	-1.805279
230.908325	1118.033081	1235.877197	1108.522339	-8.070613
231.283859	1115.209595	1233.945313	1107.184937	-6.758420
231.659332	1119.816284	1238.403442	1107.333374	-10.526360
232.034821	1119.519043	1239.443726	1104.509888	-12.515485
232.410263	1120.113525	1239.072144	1100.646118	-16.364857
232.785690	1116.918579	1238.403442	1090.095215	-22.079594
233.161087	1109.636719	1238.329224	1094.033325	-12.124555
233.536469	1110.602661	1235.579956	1088.534790	-17.657505
233.911804	1111.940186	1236.323120	1091.952759	-16.069267
234.287140	1106.738892	1245.908081	1094.627563	-8.702593
234.662430	1104.955688	1250.514771	1093.661743	-7.759011
235.037704	1101.612183	1245.907959	1092.250000	-6.488189
235.412933	1103.766968	1240.409546	1088.832153	-10.929839
235.788162	1105.995972	1242.861450	1087.568970	-13.463587
236.163345	1103.543945	1249.846069	1092.027100	-7.871961
236.538513	1103.543945	1255.567261	1092.547241	-7.233564
236.913635	1102.949585	1255.567261	1100.720581	-1.460515
237.288742	1106.070190	1266.266968	1099.160156	-4.313467
237.663834	1111.568726	1276.669434	1102.206665	-5.670515
238.038879	1112.386108	1285.214233	1100.497559	-6.878828
238.413910	1114.689331	1283.802368	1097.005493	-10.456816
238.788910	1112.980469	1279.492798	1095.445068	-10.530993
239.163879	1112.683228	1291.604126	1097.451172	-8.513290
239.538834	1108.002075	1296.359497	1104.510010	-1.853957
239.913757	1109.636841	1313.300537	1105.847412	-1.860630
240.288651	1107.556396	1331.430420	1104.732788	-1.261249
240.663528	1107.184814	1356.693359	1105.847412	-0.536015
241.038361	1105.104370	1377.572388	1104.064087	-0.381800
241.413177	1111.494507	1403.355469	1104.435669	-2.418562
241.787979	1111.197144	1430.921753	1103.989746	-2.254252
242.162735	1113.797729	1460.791504	1113.574829	-0.064238
242.537476	1107.184937	1471.342407	1116.621216	2.591263
242.912170	1116.695557	1494.302124	1116.101196	-0.157402
243.286865	1118.850342	1493.781738	1113.872192	-1.327749
243.661514	1118.478882	1496.902710	1110.528442	-2.100935
244.036148	1111.345825	1478.698608	1115.803955	1.213583
244.410751	1104.361328	1468.890503	1111.494385	1.956786
244.785339	1105.847534	1464.432251	1114.912231	2.527910
245.159882	1101.463623	1474.611816	1110.602661	2.449171
245.534378	1103.172485	1510.574219	1104.881348	0.419454
245.908890	1098.788574	1556.047485	1107.110474	1.819953
246.283356	1105.921753	1629.012695	1108.893921	0.568193
246.657791	1102.355103	1690.758423	1116.026978	2.323555
247.032196	1110.082642	1751.463745	1120.484985	1.621866
247.406586	1105.624512	1785.865845	1121.451050	2.326606
247.780960	1109.711060	1799.314819	1127.766724	2.618267
248.155289	1102.503784	1786.088867	1127.766724	3.695654
248.529602	1106.144531	1741.209961	1127.915283	3.428112
248.903870	1101.686401	1687.117676	1124.943237	3.972599
249.278122	1106.367554	1636.220337	1123.977173	3.323493
249.652344	1105.030151	1594.239258	1122.119751	3.493312
250.026550	1109.636841	1579.750122	1119.519165	2.102116
250.400711	1107.036255	1574.400391	1110.825684	0.810809
250.774857	1109.042480	1572.839966	1111.420044	0.512630
251.148987	1108.299438	1574.251587	1109.562500	0.271071
251.523071	1112.683228	1590.226685	1115.135254	0.513467
251.897125	1113.352051	1609.916992	1118.998901	1.137183
252.271164	1107.704956	1622.251343	1112.534668	0.938635
252.645187	1100.051880	1616.529907	1115.432495	2.977981
253.019165	1096.336548	1616.009766	1107.110474	2.073212
253.393112	1098.268433	1602.783813	1118.776001	4.064806
253.767044	1102.206543	1587.700562	1118.107422	3.275196
254.140930	1108.224976	1563.180664	1121.153687	2.841752
254.514801	1119.444702	1552.035278	1114.094971	-1.236673
254.888657	1124.125854	1553.892944	1115.209473	-2.074701
255.262466	1119.890625	1555.304688	1116.621216	-0.750874
255.636276	1109.636841	1569.793579	1120.187866	2.292920
256.010010	1104.435669	1580.121704	1113.649292	1.936913
256.383759	1108.745239	1615.341187	1120.484985	2.317379
256.757446	1112.311768	1640.827026	1123.680054	2.150985
257.131134	1122.714111	1685.185669	1124.348755	0.290618
257.504791	1117.141479	1731.625000	1116.844238	-0.048373
257.878418	1118.776001	1797.680054	1117.512939	-0.186044
258.252014	1110.305664	1869.382202	1130.590332	2.672282
258.625580	1109.339722	1957.728149	1147.531372	4.501670
258.999115	1105.104370	2081.813721	1157.413574	5.355657
259.372650	1113.426392	2216.747314	1165.438110	4.714106
259.746124	1115.209595	2346.182617	1164.546631	4.007970
260.119598	1121.005249	2425.612305	1163.134766	3.229288
260.493042	1120.187866	2442.181885	1164.323608	3.338573
260.866425	1113.426270	2395.593994	1168.633179	4.305748
261.239838	1109.116699	2300.932373	1169.673462	5.081051
261.613159	1099.234375	2192.004639	1155.333130	5.133627
261.986511	1109.636841	2099.274902	1147.754150	3.851641
262.359802	1110.974243	2028.464233	1134.231079	2.534833
262.733063	1112.088867	1997.331421	1124.274536	1.376534
263.106293	1111.197144	1976.526733	1115.506714	0.498026
263.479523	1110.008423	1965.975586	1117.735840	0.902770
263.852692	1109.934204	1951.858032	1132.224731	2.647571
264.225861	1101.017700	1943.016113	1134.082397	3.926931
264.598969	1098.119873	1947.548706	1138.912109	4.802314
264.972076	1097.228271	1977.046875	1135.196899	4.315506
265.345154	1103.172485	2020.885376	1143.890503	4.436902
265.718201	1110.156982	2057.590820	1149.611694	4.164376
266.091217	1118.404541	2107.299561	1160.236938	4.230216
266.464203	1124.645996	2145.119385	1152.806763	2.759579
266.837158	1118.850464	2207.459717	1154.887207	3.310347
267.210114	1115.358276	2235.248779	1147.754150	2.892771
267.583038	1116.398438	2268.610596	1154.664307	3.321078
267.955902	1116.249878	2272.325684	1157.487793	3.567060
268.328766	1113.426270	2278.641602	1158.825317	3.896194
268.701569	1107.630737	2293.873779	1157.933716	4.240529
269.074371	1107.259155	2310.517578	1152.286621	3.742128
269.447144	1110.156860	2340.387207	1154.961548	3.641975
269.819885	1114.317749	2396.411377	1153.549683	3.059990
270.192596	1114.912231	2495.531250	1152.732422	2.739365
270.565277	1113.128906	2626.898193	1154.664307	2.743840
270.937927	1110.974243	2741.398682	1162.911865	3.185528
271.310577	1114.912231	2828.110107	1171.753784	3.317863
271.683136	1108.002197	2883.837158	1177.549438	3.916312
272.055725	1107.259155	2902.932861	1177.698120	3.922704
272.428284	1111.271484	2873.657959	1171.976807	3.444495
272.800812	1120.410645	2827.664307	1162.540405	2.467692
273.173279	1124.125854	2756.110596	1169.599121	2.786378
273.545776	1121.376587	2720.222656	1175.989136	3.415748
273.918152	1117.512939	2673.188721	1182.676392	4.188756
274.290558	1116.101196	2667.764893	1175.691895	3.840439
274.662964	1109.933960	2669.399658	1175.766235	4.221464
275.035278	1111.197144	2683.294189	1177.475220	4.215902
275.407593	1105.178711	2709.523193	1182.082031	4.793442
275.779907	1109.562500	2759.900391	1181.859131	4.380717
276.152161	1112.311646	2811.912354	1187.060425	4.398020
276.524384	1116.324097	2867.862061	1197.536987	4.636662
276.896606	1104.510010	2885.546143	1201.029175	5.419271
277.268799	1094.479004	2899.217773	1195.902222	5.619828
277.640930	1086.900269	2897.880127	1182.676392	5.288635
278.013031	1091.135498	2910.288818	1186.763062	5.256707
278.385162	1096.336548	2910.437500	1190.626831	5.197631
278.757233	1108.002075	2921.211670	1189.214966	4.478958
279.129272	1113.351929	2946.994873	1184.831177	3.898210
279.501282	1115.655396	2986.672119	1186.317261	3.776656
279.873230	1108.596558	3032.665283	1198.800171	4.688170
280.245178	1108.596680	3120.119873	1193.970581	4.244241
280.617126	1111.865845	3230.608154	1193.896118	3.871650
280.988983	1114.243530	3346.594482	1195.010742	3.618034
281.360870	1113.574829	3436.798096	1204.521484	3.914676
281.732697	1106.590454	3496.463623	1214.180786	4.501927
282.104492	1104.064087	3543.794189	1210.094116	4.345974
282.476288	1101.315063	3554.716553	1217.152832	4.721517
282.848053	1099.011597	3574.481201	1221.090820	4.931558
283.219757	1092.472900	3582.505859	1221.016602	5.162329
283.591461	1100.943359	3563.186768	1218.416016	4.770960
283.963135	1108.076538	3568.611084	1206.156128	3.986109
284.334747	1114.689453	3606.654297	1211.134277	3.870232
284.706360	1113.426392	3692.548096	1219.604736	4.116841
285.077942	1115.506714	3798.578125	1235.654175	4.477983
285.449524	1116.472778	3889.004639	1241.746948	4.518404
285.821014	1116.324097	3932.397217	1233.127930	4.147756
286.192535	1107.407837	3962.266846	1226.589233	4.174686
286.563995	1106.664673	3960.855225	1227.035156	4.217325
286.935425	1103.469727	3949.263916	1237.734741	4.718016
287.306824	1113.277588	3868.645264	1232.607788	4.330827
287.678223	1114.169312	3787.581055	1228.595581	4.280159
288.049561	1116.546997	3745.451416	1221.833984	4.004976
288.420898	1112.163086	3725.686768	1227.332275	4.406663
288.792145	1114.466553	3761.129639	1226.960815	4.250419
289.163452	1116.026978	3838.404297	1226.366333	4.053051
289.534668	1116.844238	3973.783936	1230.750122	3.986989
289.905914	1110.008301	4086.872803	1241.226929	4.407948
290.277039	1102.132202	4184.134766	1241.524292	4.522777
290.648193	1103.098267	4225.149902	1247.319946	4.619452
291.019318	1108.745239	4232.134277	1239.889526	4.198781
291.390381	1116.992798	4173.063965	1239.666626	4.014102
291.761475	1116.101196	4104.333984	1227.406616	3.724791
292.132507	1118.255981	4051.058594	1232.979370	3.911732
292.503510	1117.141479	4032.111328	1238.255005	4.154881
292.874481	1116.844238	4083.454346	1251.257935	4.530885
293.245422	1111.197266	4176.109863	1249.326050	4.506777
293.616364	1111.494385	4322.708984	1258.613892	4.581429
293.987213	1116.769897	4460.837402	1268.644653	4.541618
294.358093	1118.330200	4566.719238	1276.669312	4.591683
294.728943	1118.627441	4650.384277	1277.040894	4.485401
295.099731	1114.763672	4741.256836	1272.508423	4.349788
295.470490	1118.478882	4856.425781	1284.025269	4.428805
295.841248	1116.992798	4963.273438	1286.923096	4.418042
296.211975	1115.432495	5069.005859	1289.523804	4.403391
296.582642	1117.364380	5179.494141	1293.090332	4.325956
296.953308	1117.735840	5239.604980	1298.885864	4.394851
297.323883	1119.741943	5238.638672	1298.960083	4.351120
297.694519	1117.661499	5139.593262	1289.672363	4.276822
298.065063	1107.927856	5030.442871	1283.430786	4.474245
298.435608	1106.144653	4872.549316	1276.223511	4.515682
298.806122	1105.030151	4692.662598	1268.941895	4.568800
299.176575	1111.568726	4514.039063	1264.855225	4.505153
299.547028	1112.237427	4410.758301	1260.397095	4.491700
299.917450	1112.237427	4375.612793	1256.161743	4.410290
300.287872	1108.596558	4370.931641	1247.988403	4.272763
300.658234	1107.110596	4365.656250	1254.452759	4.521716
301.028564	1102.726807	4335.415527	1260.025513	4.865879
301.398865	1114.243652	4290.759277	1261.065796	4.622113
301.769135	1110.454224	4239.639160	1254.006958	4.587544
302.139374	1111.048584	4202.562012	1243.307495	4.278128
302.509583	1103.618286	4177.596191	1241.152710	4.474151
302.879791	1106.961914	4115.925293	1239.369507	4.400439
303.249939	1110.528442	4068.965820	1237.660522	4.297271
303.620087	1107.259155	4028.024658	1233.945313	4.337430
303.990173	1106.887695	4026.539063	1229.041382	4.183845
304.360260	1101.909302	4023.641357	1230.898926	4.414834
304.730286	1109.636841	4011.232422	1242.044312	4.563264
305.100281	1113.574829	4002.985107	1240.855347	4.405069
305.470276	1117.512817	4014.576172	1248.805786	4.531933
305.840179	1111.122925	4040.284912	1238.997925	4.365583
306.210144	1107.927856	4087.838623	1240.929688	4.463283
306.579987	1115.655396	4113.992676	1235.505615	3.997223
306.949890	1122.193970	4165.930176	1238.254761	3.813103
307.319702	1118.330200	4226.338379	1242.490112	3.994838
307.689484	1115.358032	4320.479980	1245.685181	4.066215
308.059265	1109.042358	4423.240723	1255.493164	4.418891
308.429016	1114.094971	4499.846680	1266.415649	4.498873
308.798737	1109.116699	4570.954590	1269.239136	4.625359
309.168396	1112.237427	4627.796387	1267.604370	4.419409
309.538055	1107.407837	4655.808105	1264.483643	4.426665
309.907684	1103.469727	4662.718262	1267.381470	4.605235
310.277313	1100.126099	4670.742676	1260.397095	4.488608
310.646851	1103.989868	4669.182617	1258.985352	4.347464
311.016388	1108.596680	4649.566895	1251.332153	4.030971
311.385895	1109.265381	4590.421875	1254.006958	4.157859
311.755371	1110.231323	4547.921387	1248.137085	4.011582
312.124817	1108.076538	4504.676758	1252.743896	4.259181
312.494232	1112.980469	4463.958496	1258.316528	4.337123
312.863617	1112.237427	4430.522949	1262.774780	4.536600
313.232971	1119.444824	4451.921875	1262.328857	4.287622
313.602295	1116.026978	4522.286621	1258.242188	4.175114
313.971619	1122.045532	4622.595703	1255.716064	3.818558
314.340820	1118.553223	4648.973145	1253.709839	3.828344
314.710083	1124.497437	4637.604492	1258.242310	3.807025
315.079285	1125.834839	4557.208984	1256.979126	3.821918
315.448486	1122.193970	4499.252441	1259.059692	4.052809
315.817596	1121.005249	4389.507324	1250.589233	3.964629
316.186707	1115.135254	4293.062500	1240.112427	3.932663
316.555786	1115.060913	4189.558594	1230.230103	3.745952
316.924866	1107.482056	4130.859863	1220.125000	3.725732
317.293884	1110.008301	4103.738770	1226.663696	3.896657
317.662872	1112.385986	4106.562500	1222.874146	3.690102
318.031830	1112.385986	4142.451172	1229.635742	3.869546
318.400757	1107.259155	4185.918457	1233.202271	4.090843
318.769684	1107.110474	4233.917480	1243.233276	4.353412
